"BIO-KINE ASCII FILE"
"_COMMENT"	"MOS-500 Spectrometer"
"_COMMENT"	"Kinetics measurement"
"_COMMENT"	"Y Unit : Volt,  X Unit : s"
"_COMMENT"	"Excitation wavelength : 380 nm"
"_COMMENT"	"Fentes bandwidth =  1 nm"
"_COMMENT"	"HV= 1000V"
"_COMMENT"	"Timebase  1 =  .01 s   3001 pts"
"_SFM"	"SFM-400 /S  Advanced mode"
"_SFM"	"Ratio : S1: 2.5, S2: 0, S3: 0, S4: 1"
"_SFM"	"Content : S1: , S2: , S3: , S4:"
"_SFM"	"Concentration : S1: , S2: , S3: , S4:"
"_SFM"	"Total volume : 209 µl  Flow : 3.5 mL/s"
"_SFM"	"Acquisition start :  10 ms before stop"
"_SFM"	"cuve=FC-15, s1=10 ml , s2=10 ml , s3=10 ml , s4=1.9 ml"
"_UNITX"	"s"
"_UNITY"	"Volt"
"_DELTAX"	0
"_DATA"
1e-300	2.45052
0.01	2.45809
0.02	2.50677
0.03	2.57224
0.04	2.55283
0.05	2.58309
0.06	2.63671
0.07	2.61566
0.08	2.62224
0.09	2.66434
0.1	2.65974
0.11	2.6604
0.12	2.65119
0.13	2.62619
0.14	2.65316
0.15	2.66599
0.16	2.65612
0.17	2.64921
0.18	2.67125
0.19	2.66599
0.2	2.70218
0.21	2.68671
0.22	2.70744
0.23	2.70678
0.24	2.68639
0.25	2.68441
0.26	2.69428
0.27	2.67454
0.28	2.70514
0.29	2.70382
0.3	2.67027
0.31	2.67652
0.32	2.68836
0.33	2.67882
0.34	2.68671
0.35	2.67224
0.36	2.68178
0.37	2.67652
0.38	2.67849
0.39	2.69494
0.4	2.70843
0.41	2.72553
0.42	2.69329
0.43	2.71533
0.44	2.68112
0.45	2.68441
0.46	2.67652
0.47	2.69889
0.48	2.70645
0.49	2.67323
0.5	2.72948
0.51	2.72783
0.52	2.71007
0.53	2.69461
0.54	2.65711
0.55	2.67948
0.56	2.69264
0.57	2.7127
0.58	2.70481
0.59	2.70908
0.6	2.68277
0.61	2.70678
0.62	2.69691
0.63	2.68704
0.64	2.7081
0.65	2.65678
0.66	2.67454
0.67	2.72586
0.68	2.72323
0.69	2.7104
0.7	2.69428
0.71	2.69856
0.72	2.7025
0.73	2.6979
0.74	2.67487
0.75	2.70843
0.76	2.69296
0.77	2.665
0.78	2.69329
0.79	2.70152
0.8	2.70843
0.81	2.7206
0.82	2.69362
0.83	2.68704
0.84	2.70579
0.85	2.69099
0.86	2.6706
0.87	2.70316
0.88	2.70908
0.89	2.7104
0.9	2.71665
0.91	2.68671
0.92	2.69494
0.93	2.71829
0.94	2.71862
0.95	2.70843
0.96	2.68671
0.97	2.69099
0.98	2.70777
0.99	2.68869
1	2.67191
1.01	2.68211
1.02	2.70053
1.03	2.68441
1.04	2.7104
1.05	2.70415
1.06	2.69099
1.07	2.7104
1.08	2.7104
1.09	2.6627
1.1	2.67783
1.11	2.69
1.12	2.69264
1.13	2.67816
1.14	2.69494
1.15	2.7229
1.16	2.68211
1.17	2.66467
1.18	2.68342
1.19	2.67323
1.2	2.67849
1.21	2.72948
1.22	2.71829
1.23	2.69165
1.24	2.69
1.25	2.69395
1.26	2.67553
1.27	2.67125
1.28	2.68639
1.29	2.70448
1.3	2.67652
1.31	2.65481
1.32	2.69494
1.33	2.68573
1.34	2.69165
1.35	2.68573
1.36	2.69395
1.37	2.69921
1.38	2.71731
1.39	2.70283
1.4	2.6752
1.41	2.6956
1.42	2.67487
1.43	2.68474
1.44	2.70283
1.45	2.66237
1.46	2.64823
1.47	2.67553
1.48	2.67849
1.49	2.70119
1.5	2.68836
1.51	2.69198
1.52	2.70349
1.53	2.70316
1.54	2.6877
1.55	2.70218
1.56	2.69461
1.57	2.69296
1.58	2.64461
1.59	2.66566
1.6	2.67487
1.61	2.63934
1.62	2.67224
1.63	2.67388
1.64	2.69691
1.65	2.6706
1.66	2.68967
1.67	2.67882
1.68	2.68441
1.69	2.68408
1.7	2.69921
1.71	2.66895
1.72	2.69856
1.73	2.69132
1.74	2.69296
1.75	2.68211
1.76	2.67356
1.77	2.70514
1.78	2.66171
1.79	2.66402
1.8	2.68935
1.81	2.69296
1.82	2.69329
1.83	2.66928
1.84	2.69823
1.85	2.6775
1.86	2.66961
1.87	2.68474
1.88	2.68967
1.89	2.67487
1.9	2.66928
1.91	2.68606
1.92	2.6979
1.93	2.69395
1.94	2.67882
1.95	2.68869
1.96	2.69527
1.97	2.67257
1.98	2.67356
1.99	2.6275
2	2.66994
2.01	2.66632
2.02	2.66599
2.03	2.66961
2.04	2.68342
2.05	2.68079
2.06	2.68013
2.07	2.67092
2.08	2.66336
2.09	2.67356
2.1	2.65448
2.11	2.67092
2.12	2.69658
2.13	2.65481
2.14	2.66566
2.15	2.69165
2.16	2.63112
2.17	2.63869
2.18	2.65382
2.19	2.65645
2.2	2.67619
2.21	2.66763
2.22	2.66928
2.23	2.67553
2.24	2.66632
2.25	2.665
2.26	2.71435
2.27	2.66336
2.28	2.64362
2.29	2.67323
2.3	2.66829
2.31	2.67652
2.32	2.66928
2.33	2.67257
2.34	2.69198
2.35	2.72191
2.36	2.70448
2.37	2.69329
2.38	2.71533
2.39	2.68671
2.4	2.68869
2.41	2.715
2.42	2.69592
2.43	2.65645
2.44	2.64329
2.45	2.65481
2.46	2.66829
2.47	2.66533
2.48	2.69954
2.49	2.665
2.5	2.68079
2.51	2.66303
2.52	2.66073
2.53	2.66566
2.54	2.64724
2.55	2.66632
2.56	2.66204
2.57	2.66994
2.58	2.6956
2.59	2.69099
2.6	2.66599
2.61	2.69395
2.62	2.67849
2.63	2.68375
2.64	2.65546
2.65	2.69231
2.66	2.68967
2.67	2.66698
2.68	2.65119
2.69	2.67421
2.7	2.65086
2.71	2.69889
2.72	2.69527
2.73	2.6877
2.74	2.68474
2.75	2.69329
2.76	2.66928
2.77	2.65711
2.78	2.68869
2.79	2.66994
2.8	2.66467
2.81	2.70908
2.82	2.67783
2.83	2.67717
2.84	2.67849
2.85	2.70777
2.86	2.67191
2.87	2.67027
2.88	2.65645
2.89	2.65744
2.9	2.64954
2.91	2.66434
2.92	2.69231
2.93	2.63573
2.94	2.62454
2.95	2.64954
2.96	2.68244
2.97	2.65678
2.98	2.63737
2.99	2.66204
3	2.65283
3.01	2.65513
3.02	2.65513
3.03	2.6752
3.04	2.66237
3.05	2.64658
3.06	2.665
3.07	2.67257
3.08	2.64592
3.09	2.68639
3.1	2.6979
3.11	2.67191
3.12	2.68573
3.13	2.66862
3.14	2.66796
3.15	2.6479
3.16	2.67586
3.17	2.66402
3.18	2.67816
3.19	2.66336
3.2	2.64329
3.21	2.64461
3.22	2.68244
3.23	2.69757
3.24	2.67652
3.25	2.67487
3.26	2.64592
3.27	2.65711
3.28	2.64592
3.29	2.65184
3.3	2.63704
3.31	2.63671
3.32	2.64823
3.33	2.66731
3.34	2.67323
3.35	2.67717
3.36	2.6831
3.37	2.64099
3.38	2.65382
3.39	2.68803
3.4	2.6729
3.41	2.65119
3.42	2.64658
3.43	2.66369
3.44	2.66336
3.45	2.68178
3.46	2.66467
3.47	2.64033
3.48	2.65349
3.49	2.65283
3.5	2.65119
3.51	2.6706
3.52	2.67158
3.53	2.6525
3.54	2.63244
3.55	2.63737
3.56	2.65184
3.57	2.65908
3.58	2.66928
3.59	2.64395
3.6	2.65053
3.61	2.66106
3.62	2.64954
3.63	2.65941
3.64	2.65842
3.65	2.67388
3.66	2.69264
3.67	2.67158
3.68	2.66763
3.69	2.64362
3.7	2.6354
3.71	2.65481
3.72	2.62355
3.73	2.65842
3.74	2.7081
3.75	2.68639
3.76	2.62717
3.77	2.63375
3.78	2.66566
3.79	2.66204
3.8	2.63178
3.81	2.64954
3.82	2.68671
3.83	2.66698
3.84	2.69099
3.85	2.68639
3.86	2.63605
3.87	2.6604
3.88	2.63605
3.89	2.6525
3.9	2.65974
3.91	2.68013
3.92	2.6525
3.93	2.64559
3.94	2.65842
3.95	2.65415
3.96	2.67356
3.97	2.6604
3.98	2.62421
3.99	2.65941
4	2.67257
4.01	2.64757
4.02	2.62191
4.03	2.64165
4.04	2.63309
4.05	2.68013
4.06	2.69
4.07	2.67685
4.08	2.68836
4.09	2.67783
4.1	2.65612
4.11	2.61434
4.12	2.65382
4.13	2.69132
4.14	2.65316
4.15	2.63803
4.16	2.64
4.17	2.6831
4.18	2.6604
4.19	2.65481
4.2	2.67553
4.21	2.67882
4.22	2.64296
4.23	2.62783
4.24	2.64329
4.25	2.66566
4.26	2.63342
4.27	2.64527
4.28	2.64888
4.29	2.6502
4.3	2.68737
4.31	2.65283
4.32	2.65283
4.33	2.65546
4.34	2.61994
4.35	2.6627
4.36	2.67487
4.37	2.65119
4.38	2.68046
4.39	2.65415
4.4	2.64461
4.41	2.64987
4.42	2.63803
4.43	2.61665
4.44	2.63474
4.45	2.63573
4.46	2.64395
4.47	2.69362
4.48	2.67882
4.49	2.64527
4.5	2.64362
4.51	2.65119
4.52	2.65711
4.53	2.65053
4.54	2.69954
4.55	2.65349
4.56	2.63309
4.57	2.68112
4.58	2.64691
4.59	2.66599
4.6	2.70152
4.61	2.67882
4.62	2.6354
4.63	2.64033
4.64	2.63573
4.65	2.65415
4.66	2.67191
4.67	2.65152
4.68	2.66665
4.69	2.67685
4.7	2.64395
4.71	2.64198
4.72	2.63211
4.73	2.63507
4.74	2.65119
4.75	2.63441
4.76	2.66434
4.77	2.66007
4.78	2.66336
4.79	2.68277
4.8	2.66204
4.81	2.61928
4.82	2.64395
4.83	2.66467
4.84	2.65612
4.85	2.65481
4.86	2.63507
4.87	2.64954
4.88	2.66829
4.89	2.65678
4.9	2.63474
4.91	2.65612
4.92	2.64132
4.93	2.64033
4.94	2.6706
4.95	2.64855
4.96	2.66237
4.97	2.67619
4.98	2.65382
4.99	2.62553
5	2.64362
5.01	2.63803
5.02	2.64
5.03	2.63605
5.04	2.65086
5.05	2.68244
5.06	2.68145
5.07	2.65086
5.08	2.64
5.09	2.67027
5.1	2.68441
5.11	2.61829
5.12	2.63605
5.13	2.67323
5.14	2.67125
5.15	2.665
5.16	2.62586
5.17	2.64592
5.18	2.64395
5.19	2.66533
5.2	2.6354
5.21	2.62323
5.22	2.64033
5.23	2.6525
5.24	2.62619
5.25	2.62651
5.26	2.65217
5.27	2.64099
5.28	2.63375
5.29	2.65809
5.3	2.67981
5.31	2.66928
5.32	2.6775
5.33	2.65217
5.34	2.6752
5.35	2.66796
5.36	2.65415
5.37	2.64658
5.38	2.63638
5.39	2.67027
5.4	2.64987
5.41	2.61895
5.42	2.67257
5.43	2.65349
5.44	2.66204
5.45	2.65974
5.46	2.65184
5.47	2.62783
5.48	2.64559
5.49	2.65481
5.5	2.66434
5.51	2.68836
5.52	2.65481
5.53	2.66994
5.54	2.64921
5.55	2.64921
5.56	2.64921
5.57	2.65481
5.58	2.65908
5.59	2.64691
5.6	2.6627
5.61	2.62948
5.62	2.64724
5.63	2.64625
5.64	2.65382
5.65	2.65086
5.66	2.64625
5.67	2.62323
5.68	2.65678
5.69	2.64658
5.7	2.65448
5.71	2.65217
5.72	2.65481
5.73	2.65744
5.74	2.64987
5.75	2.65184
5.76	2.64428
5.77	2.65875
5.78	2.64921
5.79	2.61697
5.8	2.63145
5.81	2.6377
5.82	2.64823
5.83	2.64757
5.84	2.62487
5.85	2.63408
5.86	2.6423
5.87	2.65415
5.88	2.63013
5.89	2.62224
5.9	2.63869
5.91	2.64855
5.92	2.63869
5.93	2.63474
5.94	2.62257
5.95	2.64592
5.96	2.66138
5.97	2.63112
5.98	2.62388
5.99	2.61928
6	2.64296
6.01	2.64855
6.02	2.66731
6.03	2.62454
6.04	2.61336
6.05	2.60151
6.06	2.58737
6.07	2.62158
6.08	2.62487
6.09	2.60579
6.1	2.64757
6.11	2.65941
6.12	2.64165
6.13	2.61105
6.14	2.65283
6.15	2.6275
6.16	2.63244
6.17	2.62191
6.18	2.64855
6.19	2.64855
6.2	2.60513
6.21	2.63309
6.22	2.63638
6.23	2.67027
6.24	2.65152
6.25	2.63178
6.26	2.63507
6.27	2.64066
6.28	2.64428
6.29	2.6127
6.3	2.62125
6.31	2.6127
6.32	2.64198
6.33	2.63869
6.34	2.6706
6.35	2.65184
6.36	2.63276
6.37	2.64033
6.38	2.66994
6.39	2.60513
6.4	2.63573
6.41	2.6298
6.42	2.62882
6.43	2.63342
6.44	2.61533
6.45	2.63902
6.46	2.65744
6.47	2.64362
6.48	2.64855
6.49	2.6604
6.5	2.63276
6.51	2.60941
6.52	2.62783
6.53	2.61763
6.54	2.63869
6.55	2.63046
6.56	2.66566
6.57	2.66007
6.58	2.6275
6.59	2.63211
6.6	2.61961
6.61	2.64296
6.62	2.65744
6.63	2.62355
6.64	2.64625
6.65	2.63474
6.66	2.63244
6.67	2.64658
6.68	2.63244
6.69	2.6502
6.7	2.63934
6.71	2.6275
6.72	2.64954
6.73	2.63046
6.74	2.65217
6.75	2.64954
6.76	2.61796
6.77	2.64757
6.78	2.59691
6.79	2.59691
6.8	2.64954
6.81	2.62619
6.82	2.61994
6.83	2.63605
6.84	2.63507
6.85	2.64329
6.86	2.64198
6.87	2.6275
6.88	2.62849
6.89	2.63342
6.9	2.64
6.91	2.63638
6.92	2.63276
6.93	2.62224
6.94	2.62651
6.95	2.65349
6.96	2.63704
6.97	2.6025
6.98	2.64132
6.99	2.61994
7	2.61994
7.01	2.6229
7.02	2.63704
7.03	2.63178
7.04	2.59066
7.05	2.59822
7.06	2.61303
7.07	2.61632
7.08	2.59461
7.09	2.62651
7.1	2.63934
7.11	2.65513
7.12	2.64165
7.13	2.62355
7.14	2.63967
7.15	2.64757
7.16	2.64625
7.17	2.62553
7.18	2.6354
7.19	2.63013
7.2	2.61303
7.21	2.63244
7.22	2.61829
7.23	2.62092
7.24	2.62059
7.25	2.63046
7.26	2.63967
7.27	2.63836
7.28	2.6275
7.29	2.61928
7.3	2.62388
7.31	2.61138
7.32	2.64757
7.33	2.65119
7.34	2.64198
7.35	2.6104
7.36	2.61763
7.37	2.61204
7.38	2.59855
7.39	2.6275
7.4	2.63013
7.41	2.615
7.42	2.64
7.43	2.64724
7.44	2.66007
7.45	2.63079
7.46	2.60974
7.47	2.65217
7.48	2.63605
7.49	2.64099
7.5	2.62158
7.51	2.63967
7.52	2.65941
7.53	2.65283
7.54	2.6479
7.55	2.61599
7.56	2.61961
7.57	2.60513
7.58	2.61204
7.59	2.6025
7.6	2.62323
7.61	2.63507
7.62	2.61928
7.63	2.61862
7.64	2.62915
7.65	2.65119
7.66	2.63474
7.67	2.60053
7.68	2.62158
7.69	2.65481
7.7	2.67224
7.71	2.62125
7.72	2.64921
7.73	2.66204
7.74	2.64
7.75	2.62125
7.76	2.67158
7.77	2.63211
7.78	2.62191
7.79	2.6104
7.8	2.64757
7.81	2.6275
7.82	2.60612
7.83	2.63079
7.84	2.62586
7.85	2.61369
7.86	2.61007
7.87	2.62651
7.88	2.62092
7.89	2.65842
7.9	2.63112
7.91	2.64132
7.92	2.62059
7.93	2.61401
7.94	2.62816
7.95	2.6423
7.96	2.63276
7.97	2.61895
7.98	2.64329
7.99	2.64921
8	2.63902
8.01	2.62158
8.02	2.62586
8.03	2.60645
8.04	2.6229
8.05	2.61763
8.06	2.60711
8.07	2.6229
8.08	2.64165
8.09	2.63244
8.1	2.60974
8.11	2.62915
8.12	2.60908
8.13	2.63803
8.14	2.64165
8.15	2.63638
8.16	2.6604
8.17	2.65152
8.18	2.65217
8.19	2.63573
8.2	2.6502
8.21	2.63836
8.22	2.63013
8.23	2.63244
8.24	2.60678
8.25	2.64888
8.26	2.63211
8.27	2.61763
8.28	2.62684
8.29	2.62717
8.3	2.64625
8.31	2.64855
8.32	2.63671
8.33	2.61895
8.34	2.62388
8.35	2.65349
8.36	2.59691
8.37	2.60283
8.38	2.61105
8.39	2.60217
8.4	2.63869
8.41	2.61533
8.42	2.63145
8.43	2.60382
8.44	2.62882
8.45	2.61303
8.46	2.62388
8.47	2.6275
8.48	2.60711
8.49	2.60053
8.5	2.62454
8.51	2.64428
8.52	2.65513
8.53	2.61796
8.54	2.59526
8.55	2.60283
8.56	2.63079
8.57	2.64395
8.58	2.62586
8.59	2.60513
8.6	2.59559
8.61	2.63671
8.62	2.63803
8.63	2.62882
8.64	2.60711
8.65	2.6229
8.66	2.60382
8.67	2.65382
8.68	2.60974
8.69	2.61171
8.7	2.64921
8.71	2.62257
8.72	2.63605
8.73	2.6377
8.74	2.63441
8.75	2.62849
8.76	2.65349
8.77	2.64954
8.78	2.63441
8.79	2.61994
8.8	2.62355
8.81	2.6275
8.82	2.62323
8.83	2.63244
8.84	2.64033
8.85	2.61072
8.86	2.63507
8.87	2.61467
8.88	2.59691
8.89	2.61697
8.9	2.62355
8.91	2.62619
8.92	2.64461
8.93	2.61763
8.94	2.61763
8.95	2.59165
8.96	2.60908
8.97	2.60645
8.98	2.62388
8.99	2.62487
9	2.60283
9.01	2.62553
9.02	2.63441
9.03	2.60184
9.04	2.61401
9.05	2.60546
9.06	2.62026
9.07	2.61928
9.08	2.59132
9.09	2.65908
9.1	2.62849
9.11	2.64
9.12	2.64823
9.13	2.63803
9.14	2.61796
9.15	2.61632
9.16	2.60349
9.17	2.62454
9.18	2.63276
9.19	2.62487
9.2	2.63309
9.21	2.62783
9.22	2.64757
9.23	2.64099
9.24	2.64921
9.25	2.64099
9.26	2.64658
9.27	2.64263
9.28	2.63605
9.29	2.61401
9.3	2.5979
9.31	2.60875
9.32	2.60118
9.33	2.65053
9.34	2.64428
9.35	2.61928
9.36	2.65053
9.37	2.63902
9.38	2.61138
9.39	2.6104
9.4	2.61599
9.41	2.63145
9.42	2.59757
9.43	2.615
9.44	2.61434
9.45	2.59395
9.46	2.61665
9.47	2.5979
9.48	2.61401
9.49	2.62224
9.5	2.63276
9.51	2.60151
9.52	2.59691
9.53	2.59855
9.54	2.63737
9.55	2.63046
9.56	2.6252
9.57	2.63507
9.58	2.58803
9.59	2.61369
9.6	2.60579
9.61	2.61961
9.62	2.61237
9.63	2.61763
9.64	2.58967
9.65	2.60776
9.66	2.63671
9.67	2.61763
9.68	2.63375
9.69	2.60053
9.7	2.64527
9.71	2.6173
9.72	2.62948
9.73	2.63902
9.74	2.62487
9.75	2.64461
9.76	2.62388
9.77	2.61007
9.78	2.61467
9.79	2.6173
9.8	2.62059
9.81	2.61928
9.82	2.62026
9.83	2.59592
9.84	2.59757
9.85	2.63046
9.86	2.61632
9.87	2.60546
9.88	2.61599
9.89	2.60086
9.9	2.60776
9.91	2.61566
9.92	2.60118
9.93	2.62158
9.94	2.62651
9.95	2.62388
9.96	2.65217
9.97	2.615
9.98	2.60415
9.99	2.64724
10	2.63869
10.01	2.6048
10.02	2.61697
10.03	2.62619
10.04	2.63605
10.05	2.61697
10.06	2.64823
10.07	2.61994
10.08	2.62915
10.09	2.61697
10.1	2.61072
10.11	2.62454
10.12	2.60645
10.13	2.62717
10.14	2.61467
10.15	2.60546
10.16	2.61467
10.17	2.6173
10.18	2.63902
10.19	2.60447
10.2	2.62651
10.21	2.59066
10.22	2.60316
10.23	2.62783
10.24	2.6275
10.25	2.62553
10.26	2.63309
10.27	2.61303
10.28	2.65217
10.29	2.63309
10.3	2.60678
10.31	2.63441
10.32	2.63441
10.33	2.63211
10.34	2.61237
10.35	2.63704
10.36	2.65579
10.37	2.60776
10.38	2.62948
10.39	2.61467
10.4	2.6377
10.41	2.62717
10.42	2.61862
10.43	2.60776
10.44	2.61007
10.45	2.615
10.46	2.59263
10.47	2.59822
10.48	2.615
10.49	2.61138
10.5	2.6173
10.51	2.60184
10.52	2.61533
10.53	2.63178
10.54	2.63967
10.55	2.63803
10.56	2.61105
10.57	2.61138
10.58	2.64165
10.59	2.61467
10.6	2.61994
10.61	2.61697
10.62	2.63178
10.63	2.62586
10.64	2.60151
10.65	2.59197
10.66	2.61204
10.67	2.61401
10.68	2.63507
10.69	2.60579
10.7	2.60941
10.71	2.62323
10.72	2.60118
10.73	2.59
10.74	2.60776
10.75	2.61303
10.76	2.62388
10.77	2.63605
10.78	2.64
10.79	2.64099
10.8	2.61632
10.81	2.60645
10.82	2.65053
10.83	2.63342
10.84	2.62191
10.85	2.62651
10.86	2.62059
10.87	2.62586
10.88	2.60447
10.89	2.60809
10.9	2.60118
10.91	2.62915
10.92	2.62026
10.93	2.62487
10.94	2.62092
10.95	2.62355
10.96	2.63573
10.97	2.63112
10.98	2.61401
10.99	2.62684
11	2.6127
11.01	2.6048
11.02	2.59987
11.03	2.63638
11.04	2.63408
11.05	2.60941
11.06	2.6173
11.07	2.63902
11.08	2.6127
11.09	2.62882
11.1	2.61599
11.11	2.61007
11.12	2.60941
11.13	2.6104
11.14	2.59395
11.15	2.61434
11.16	2.58507
11.17	2.60546
11.18	2.63145
11.19	2.63013
11.2	2.59855
11.21	2.60842
11.22	2.63605
11.23	2.61336
11.24	2.62651
11.25	2.61763
11.26	2.6252
11.27	2.59757
11.28	2.61401
11.29	2.60349
11.3	2.6048
11.31	2.59099
11.32	2.61994
11.33	2.64329
11.34	2.61467
11.35	2.60316
11.36	2.60184
11.37	2.60349
11.38	2.61369
11.39	2.58704
11.4	2.58408
11.41	2.6104
11.42	2.60546
11.43	2.61401
11.44	2.59395
11.45	2.60546
11.46	2.58671
11.47	2.60645
11.48	2.61829
11.49	2.62586
11.5	2.60974
11.51	2.59263
11.52	2.63375
11.53	2.60776
11.54	2.59559
11.55	2.60513
11.56	2.61171
11.57	2.61237
11.58	2.61665
11.59	2.63573
11.6	2.60941
11.61	2.60546
11.62	2.61829
11.63	2.6173
11.64	2.6604
11.65	2.61566
11.66	2.6048
11.67	2.64691
11.68	2.62125
11.69	2.62651
11.7	2.59362
11.71	2.59
11.72	2.59888
11.73	2.62553
11.74	2.61763
11.75	2.61401
11.76	2.59165
11.77	2.62224
11.78	2.59461
11.79	2.56796
11.8	2.59822
11.81	2.64855
11.82	2.63276
11.83	2.60053
11.84	2.61171
11.85	2.6377
11.86	2.61237
11.87	2.61072
11.88	2.62816
11.89	2.60382
11.9	2.60711
11.91	2.58408
11.92	2.60513
11.93	2.62915
11.94	2.62191
11.95	2.61665
11.96	2.59395
11.97	2.58539
11.98	2.62092
11.99	2.60941
12	2.6048
12.01	2.58539
12.02	2.61632
12.03	2.6275
12.04	2.62224
12.05	2.58441
12.06	2.61007
12.07	2.63408
12.08	2.60053
12.09	2.60086
12.1	2.57684
12.11	2.59132
12.12	2.62421
12.13	2.60349
12.14	2.60415
12.15	2.63211
12.16	2.59724
12.17	2.59658
12.18	2.58507
12.19	2.56796
12.2	2.61994
12.21	2.64987
12.22	2.6173
12.23	2.61467
12.24	2.58572
12.25	2.63638
12.26	2.63309
12.27	2.63013
12.28	2.58836
12.29	2.56895
12.3	2.60053
12.31	2.63638
12.32	2.62421
12.33	2.59559
12.34	2.60283
12.35	2.61994
12.36	2.62487
12.37	2.61401
12.38	2.58836
12.39	2.59625
12.4	2.60744
12.41	2.59954
12.42	2.60513
12.43	2.63046
12.44	2.62388
12.45	2.64921
12.46	2.62224
12.47	2.60118
12.48	2.62125
12.49	2.6229
12.5	2.59691
12.51	2.61369
12.52	2.62882
12.53	2.59461
12.54	2.60053
12.55	2.59987
12.56	2.62323
12.57	2.62684
12.58	2.59757
12.59	2.60908
12.6	2.57618
12.61	2.60645
12.62	2.60776
12.63	2.59855
12.64	2.62684
12.65	2.58046
12.66	2.61369
12.67	2.60908
12.68	2.58967
12.69	2.61434
12.7	2.62454
12.71	2.63573
12.72	2.62948
12.73	2.5923
12.74	2.58934
12.75	2.57388
12.76	2.59822
12.77	2.59855
12.78	2.59888
12.79	2.63244
12.8	2.6173
12.81	2.64724
12.82	2.62619
12.83	2.59855
12.84	2.59724
12.85	2.60316
12.86	2.59888
12.87	2.60382
12.88	2.58013
12.89	2.60415
12.9	2.62948
12.91	2.61994
12.92	2.62783
12.93	2.62059
12.94	2.59362
12.95	2.62355
12.96	2.61994
12.97	2.63046
12.98	2.60053
12.99	2.63211
13	2.60184
13.01	2.57487
13.02	2.60217
13.03	2.62586
13.04	2.60744
13.05	2.62948
13.06	2.615
13.07	2.59658
13.08	2.6025
13.09	2.59493
13.1	2.57059
13.11	2.58112
13.12	2.60086
13.13	2.6173
13.14	2.61204
13.15	2.59362
13.16	2.60283
13.17	2.59461
13.18	2.58539
13.19	2.58211
13.2	2.6127
13.21	2.6127
13.22	2.61697
13.23	2.6173
13.24	2.58079
13.25	2.6048
13.26	2.58803
13.27	2.58572
13.28	2.61401
13.29	2.61829
13.3	2.62059
13.31	2.61401
13.32	2.57783
13.33	2.58934
13.34	2.60184
13.35	2.60447
13.36	2.6048
13.37	2.61566
13.38	2.63573
13.39	2.60776
13.4	2.61434
13.41	2.57454
13.42	2.57125
13.43	2.60908
13.44	2.58967
13.45	2.59263
13.46	2.58441
13.47	2.60546
13.48	2.61171
13.49	2.60184
13.5	2.57289
13.51	2.60776
13.52	2.61994
13.53	2.57158
13.54	2.63244
13.55	2.62915
13.56	2.59461
13.57	2.58145
13.58	2.59757
13.59	2.58605
13.6	2.615
13.61	2.63211
13.62	2.61533
13.63	2.58671
13.64	2.60151
13.65	2.60447
13.66	2.6127
13.67	2.61369
13.68	2.59
13.69	2.59691
13.7	2.60513
13.71	2.60513
13.72	2.62092
13.73	2.62323
13.74	2.6127
13.75	2.63573
13.76	2.62454
13.77	2.63211
13.78	2.63145
13.79	2.59691
13.8	2.6275
13.81	2.59197
13.82	2.59428
13.83	2.60151
13.84	2.62487
13.85	2.61994
13.86	2.61763
13.87	2.62816
13.88	2.63046
13.89	2.61138
13.9	2.615
13.91	2.58342
13.92	2.58408
13.93	2.59724
13.94	2.60711
13.95	2.60316
13.96	2.59395
13.97	2.5798
13.98	2.60809
13.99	2.61467
14	2.61237
14.01	2.60053
14.02	2.61237
14.03	2.59592
14.04	2.59724
14.05	2.61072
14.06	2.63145
14.07	2.62158
14.08	2.59921
14.09	2.6173
14.1	2.61829
14.11	2.60776
14.12	2.61303
14.13	2.60776
14.14	2.60711
14.15	2.63869
14.16	2.63013
14.17	2.60118
14.18	2.57586
14.19	2.5923
14.2	2.60349
14.21	2.57882
14.22	2.58375
14.23	2.63342
14.24	2.6298
14.25	2.6048
14.26	2.62948
14.27	2.62586
14.28	2.61599
14.29	2.59822
14.3	2.61434
14.31	2.61928
14.32	2.62454
14.33	2.58638
14.34	2.58737
14.35	2.59987
14.36	2.63145
14.37	2.63211
14.38	2.61105
14.39	2.59197
14.4	2.58178
14.41	2.59132
14.42	2.63211
14.43	2.5923
14.44	2.60908
14.45	2.58046
14.46	2.59822
14.47	2.62487
14.48	2.61533
14.49	2.62487
14.5	2.61401
14.51	2.62191
14.52	2.61862
14.53	2.62421
14.54	2.58737
14.55	2.61072
14.56	2.60118
14.57	2.58967
14.58	2.58474
14.59	2.59921
14.6	2.60908
14.61	2.58211
14.62	2.6002
14.63	2.62355
14.64	2.6104
14.65	2.62783
14.66	2.59362
14.67	2.60053
14.68	2.60118
14.69	2.6025
14.7	2.60086
14.71	2.59132
14.72	2.60645
14.73	2.60908
14.74	2.62026
14.75	2.62125
14.76	2.63573
14.77	2.57158
14.78	2.61434
14.79	2.63112
14.8	2.64033
14.81	2.59263
14.82	2.58572
14.83	2.60217
14.84	2.60842
14.85	2.59165
14.86	2.60645
14.87	2.60217
14.88	2.59526
14.89	2.61862
14.9	2.59197
14.91	2.59395
14.92	2.59757
14.93	2.60316
14.94	2.6377
14.95	2.61336
14.96	2.61763
14.97	2.62026
14.98	2.58013
14.99	2.60151
15	2.61138
15.01	2.60579
15.02	2.60941
15.03	2.5979
15.04	2.56303
15.05	2.56664
15.06	2.60579
15.07	2.61599
15.08	2.6377
15.09	2.62717
15.1	2.59954
15.11	2.60447
15.12	2.58112
15.13	2.59329
15.14	2.60645
15.15	2.59099
15.16	2.6127
15.17	2.60941
15.18	2.59066
15.19	2.63244
15.2	2.58178
15.21	2.6173
15.22	2.60776
15.23	2.59691
15.24	2.6127
15.25	2.62224
15.26	2.61763
15.27	2.61171
15.28	2.59165
15.29	2.58737
15.3	2.61632
15.31	2.57651
15.32	2.58967
15.33	2.59855
15.34	2.59888
15.35	2.63704
15.36	2.62158
15.37	2.59066
15.38	2.5752
15.39	2.57717
15.4	2.61566
15.41	2.64198
15.42	2.60184
15.43	2.61434
15.44	2.59132
15.45	2.5775
15.46	2.59165
15.47	2.59691
15.48	2.60776
15.49	2.57849
15.5	2.60513
15.51	2.59724
15.52	2.615
15.53	2.6127
15.54	2.64757
15.55	2.61369
15.56	2.60908
15.57	2.58868
15.58	2.62783
15.59	2.62158
15.6	2.59296
15.61	2.60809
15.62	2.63408
15.63	2.57816
15.64	2.59625
15.65	2.6127
15.66	2.60086
15.67	2.58836
15.68	2.61829
15.69	2.61105
15.7	2.6002
15.71	2.63046
15.72	2.61994
15.73	2.60612
15.74	2.60447
15.75	2.61401
15.76	2.59888
15.77	2.60645
15.78	2.58737
15.79	2.60842
15.8	2.61138
15.81	2.59888
15.82	2.5923
15.83	2.61336
15.84	2.60283
15.85	2.61467
15.86	2.62882
15.87	2.59493
15.88	2.60283
15.89	2.60645
15.9	2.57454
15.91	2.5923
15.92	2.6025
15.93	2.60678
15.94	2.59888
15.95	2.56105
15.96	2.58572
15.97	2.57586
15.98	2.59197
15.99	2.58868
16	2.58671
16.01	2.59493
16.02	2.5923
16.03	2.53441
16.04	2.57257
16.05	2.6104
16.06	2.59757
16.07	2.57257
16.08	2.58211
16.09	2.61632
16.1	2.59526
16.11	2.59658
16.12	2.61763
16.13	2.59855
16.14	2.60941
16.15	2.615
16.16	2.62092
16.17	2.59855
16.18	2.58671
16.19	2.59428
16.2	2.59493
16.21	2.58572
16.22	2.59066
16.23	2.6002
16.24	2.58079
16.25	2.59658
16.26	2.57947
16.27	2.62224
16.28	2.62355
16.29	2.59757
16.3	2.61763
16.31	2.59132
16.32	2.57421
16.33	2.60283
16.34	2.58836
16.35	2.62191
16.36	2.5923
16.37	2.61533
16.38	2.59724
16.39	2.6048
16.4	2.59461
16.41	2.59888
16.42	2.57224
16.43	2.58145
16.44	2.59263
16.45	2.59461
16.46	2.61237
16.47	2.62191
16.48	2.62421
16.49	2.59099
16.5	2.6275
16.51	2.59559
16.52	2.58638
16.53	2.59855
16.54	2.61566
16.55	2.60283
16.56	2.57191
16.57	2.62816
16.58	2.58671
16.59	2.58967
16.6	2.58605
16.61	2.615
16.62	2.56566
16.63	2.56599
16.64	2.58572
16.65	2.5673
16.66	2.57355
16.67	2.58836
16.68	2.61105
16.69	2.57421
16.7	2.61599
16.71	2.61796
16.72	2.59691
16.73	2.58638
16.74	2.56138
16.75	2.60678
16.76	2.59165
16.77	2.56796
16.78	2.59691
16.79	2.62257
16.8	2.60875
16.81	2.61533
16.82	2.60513
16.83	2.61467
16.84	2.60579
16.85	2.61632
16.86	2.59658
16.87	2.60974
16.88	2.60283
16.89	2.60842
16.9	2.62059
16.91	2.59822
16.92	2.58243
16.93	2.55645
16.94	2.58539
16.95	2.61697
16.96	2.58243
16.97	2.57388
16.98	2.61204
16.99	2.60744
17	2.58836
17.01	2.56829
17.02	2.60546
17.03	2.62125
17.04	2.59855
17.05	2.56928
17.06	2.59197
17.07	2.60776
17.08	2.58539
17.09	2.62191
17.1	2.59757
17.11	2.59921
17.12	2.62882
17.13	2.60744
17.14	2.59724
17.15	2.58737
17.16	2.59625
17.17	2.60447
17.18	2.59132
17.19	2.58934
17.2	2.6252
17.21	2.62158
17.22	2.62257
17.23	2.6048
17.24	2.5923
17.25	2.58243
17.26	2.58967
17.27	2.58013
17.28	2.58868
17.29	2.5979
17.3	2.59954
17.31	2.59362
17.32	2.58868
17.33	2.61665
17.34	2.61105
17.35	2.61796
17.36	2.60678
17.37	2.57092
17.38	2.55217
17.39	2.58901
17.4	2.59559
17.41	2.57487
17.42	2.60974
17.43	2.60974
17.44	2.57783
17.45	2.59132
17.46	2.62651
17.47	2.62915
17.48	2.61105
17.49	2.60118
17.5	2.59362
17.51	2.58079
17.52	2.60086
17.53	2.58901
17.54	2.57355
17.55	2.59165
17.56	2.60612
17.57	2.59197
17.58	2.5877
17.59	2.59132
17.6	2.58474
17.61	2.58375
17.62	2.6298
17.63	2.61007
17.64	2.58342
17.65	2.61171
17.66	2.62026
17.67	2.59855
17.68	2.6127
17.69	2.63013
17.7	2.58342
17.71	2.59099
17.72	2.60086
17.73	2.6002
17.74	2.60217
17.75	2.58507
17.76	2.61007
17.77	2.61434
17.78	2.61369
17.79	2.59822
17.8	2.60842
17.81	2.59493
17.82	2.6127
17.83	2.57092
17.84	2.5923
17.85	2.58013
17.86	2.60283
17.87	2.57421
17.88	2.59329
17.89	2.61007
17.9	2.6104
17.91	2.59855
17.92	2.56599
17.93	2.59493
17.94	2.56434
17.95	2.58046
17.96	2.55809
17.97	2.57224
17.98	2.60118
17.99	2.61171
18	2.61303
18.01	2.59132
18.02	2.61599
18.03	2.60053
18.04	2.60645
18.05	2.60875
18.06	2.56993
18.07	2.59888
18.08	2.58901
18.09	2.62323
18.1	2.62849
18.11	2.58243
18.12	2.59132
18.13	2.58934
18.14	2.59855
18.15	2.5673
18.16	2.60217
18.17	2.60744
18.18	2.5979
18.19	2.58507
18.2	2.56566
18.21	2.60086
18.22	2.57224
18.23	2.58408
18.24	2.5696
18.25	2.56862
18.26	2.60283
18.27	2.57849
18.28	2.56599
18.29	2.59921
18.3	2.60678
18.31	2.58178
18.32	2.59493
18.33	2.57882
18.34	2.59197
18.35	2.58671
18.36	2.60349
18.37	2.59
18.38	2.57947
18.39	2.57388
18.4	2.59165
18.41	2.58638
18.42	2.61862
18.43	2.62158
18.44	2.62191
18.45	2.62191
18.46	2.60283
18.47	2.60711
18.48	2.59855
18.49	2.57158
18.5	2.57651
18.51	2.61401
18.52	2.60612
18.53	2.59263
18.54	2.59296
18.55	2.6025
18.56	2.61204
18.57	2.60283
18.58	2.59
18.59	2.58539
18.6	2.59921
18.61	2.59658
18.62	2.6025
18.63	2.58836
18.64	2.61434
18.65	2.59
18.66	2.58046
18.67	2.58211
18.68	2.57684
18.69	2.57322
18.7	2.58013
18.71	2.61697
18.72	2.59329
18.73	2.58079
18.74	2.59625
18.75	2.5798
18.76	2.6002
18.77	2.61007
18.78	2.58934
18.79	2.55645
18.8	2.58243
18.81	2.58901
18.82	2.57586
18.83	2.55546
18.84	2.61994
18.85	2.615
18.86	2.59165
18.87	2.57816
18.88	2.60053
18.89	2.59691
18.9	2.59
18.91	2.59099
18.92	2.59888
18.93	2.59855
18.94	2.58408
18.95	2.58572
18.96	2.6229
18.97	2.60382
18.98	2.57651
18.99	2.58934
19	2.6229
19.01	2.58671
19.02	2.59888
19.03	2.6048
19.04	2.57618
19.05	2.57783
19.06	2.58901
19.07	2.60875
19.08	2.60283
19.09	2.57553
19.1	2.56829
19.11	2.54658
19.12	2.60349
19.13	2.58211
19.14	2.63408
19.15	2.58803
19.16	2.61204
19.17	2.57947
19.18	2.57388
19.19	2.59165
19.2	2.58013
19.21	2.59526
19.22	2.60579
19.23	2.6275
19.24	2.59165
19.25	2.60053
19.26	2.60711
19.27	2.59757
19.28	2.6104
19.29	2.60415
19.3	2.58901
19.31	2.57717
19.32	2.57454
19.33	2.58013
19.34	2.60612
19.35	2.59461
19.36	2.60184
19.37	2.57651
19.38	2.58934
19.39	2.60776
19.4	2.59493
19.41	2.59329
19.42	2.59197
19.43	2.565
19.44	2.58145
19.45	2.58901
19.46	2.58967
19.47	2.60908
19.48	2.58704
19.49	2.57849
19.5	2.58803
19.51	2.60349
19.52	2.57816
19.53	2.59099
19.54	2.58704
19.55	2.56237
19.56	2.57322
19.57	2.56401
19.58	2.59395
19.59	2.56895
19.6	2.59888
19.61	2.6252
19.62	2.59132
19.63	2.60974
19.64	2.61105
19.65	2.59165
19.66	2.57684
19.67	2.58408
19.68	2.61533
19.69	2.61171
19.7	2.5627
19.71	2.58803
19.72	2.63112
19.73	2.62125
19.74	2.5877
19.75	2.60283
19.76	2.60184
19.77	2.57257
19.78	2.60678
19.79	2.59921
19.8	2.57158
19.81	2.56697
19.82	2.58671
19.83	2.57618
19.84	2.60941
19.85	2.62454
19.86	2.5752
19.87	2.5923
19.88	2.56862
19.89	2.55381
19.9	2.56105
19.91	2.57914
19.92	2.60151
19.93	2.6173
19.94	2.57454
19.95	2.58737
19.96	2.59658
19.97	2.60579
19.98	2.58934
19.99	2.58901
20	2.60316
20.01	2.61303
20.02	2.59658
20.03	2.57388
20.04	2.59592
20.05	2.58934
20.06	2.59724
20.07	2.59691
20.08	2.59395
20.09	2.56401
20.1	2.5752
20.11	2.59
20.12	2.60579
20.13	2.61303
20.14	2.5979
20.15	2.58178
20.16	2.57388
20.17	2.57487
20.18	2.56796
20.19	2.5752
20.2	2.59855
20.21	2.59625
20.22	2.59428
20.23	2.59033
20.24	2.57783
20.25	2.59066
20.26	2.57191
20.27	2.57355
20.28	2.58704
20.29	2.58704
20.3	2.55184
20.31	2.57618
20.32	2.58539
20.33	2.57092
20.34	2.57849
20.35	2.61566
20.36	2.63836
20.37	2.58605
20.38	2.59296
20.39	2.60974
20.4	2.58276
20.41	2.57191
20.42	2.58539
20.43	2.60974
20.44	2.58112
20.45	2.58046
20.46	2.57816
20.47	2.55908
20.48	2.57059
20.49	2.60974
20.5	2.62125
20.51	2.61138
20.52	2.59888
20.53	2.57882
20.54	2.5627
20.55	2.57783
20.56	2.59493
20.57	2.60349
20.58	2.60842
20.59	2.6048
20.6	2.59855
20.61	2.57322
20.62	2.56895
20.63	2.5923
20.64	2.59132
20.65	2.60415
20.66	2.57553
20.67	2.60513
20.68	2.60711
20.69	2.59362
20.7	2.58112
20.71	2.60184
20.72	2.59921
20.73	2.60678
20.74	2.60711
20.75	2.6002
20.76	2.58243
20.77	2.58572
20.78	2.62388
20.79	2.61763
20.8	2.59855
20.81	2.57487
20.82	2.57553
20.83	2.57553
20.84	2.58737
20.85	2.59329
20.86	2.59724
20.87	2.60349
20.88	2.59197
20.89	2.58605
20.9	2.59658
20.91	2.59197
20.92	2.58013
20.93	2.59099
20.94	2.62092
20.95	2.60711
20.96	2.57684
20.97	2.58013
20.98	2.58671
20.99	2.59329
21	2.60053
21.01	2.57191
21.02	2.59
21.03	2.6025
21.04	2.57553
21.05	2.58539
21.06	2.59888
21.07	2.61138
21.08	2.59691
21.09	2.58737
21.1	2.59625
21.11	2.58671
21.12	2.61862
21.13	2.59197
21.14	2.58145
21.15	2.57388
21.16	2.54625
21.17	2.58572
21.18	2.60447
21.19	2.57586
21.2	2.55349
21.21	2.57684
21.22	2.61237
21.23	2.58704
21.24	2.59165
21.25	2.59395
21.26	2.60349
21.27	2.62553
21.28	2.61171
21.29	2.59888
21.3	2.57816
21.31	2.5979
21.32	2.56467
21.33	2.57158
21.34	2.61138
21.35	2.57454
21.36	2.57257
21.37	2.59329
21.38	2.5877
21.39	2.59263
21.4	2.5673
21.41	2.58342
21.42	2.62224
21.43	2.60053
21.44	2.60316
21.45	2.58079
21.46	2.58112
21.47	2.59987
21.48	2.60974
21.49	2.59329
21.5	2.5752
21.51	2.57388
21.52	2.60546
21.53	2.6002
21.54	2.55316
21.55	2.58178
21.56	2.6002
21.57	2.55842
21.58	2.57191
21.59	2.57586
21.6	2.59757
21.61	2.58112
21.62	2.57322
21.63	2.59724
21.64	2.6229
21.65	2.58079
21.66	2.58803
21.67	2.58934
21.68	2.58441
21.69	2.56993
21.7	2.57553
21.71	2.60184
21.72	2.60415
21.73	2.57059
21.74	2.57257
21.75	2.55513
21.76	2.615
21.77	2.58211
21.78	2.56566
21.79	2.5798
21.8	2.55381
21.81	2.57947
21.82	2.59559
21.83	2.57586
21.84	2.58178
21.85	2.57125
21.86	2.58211
21.87	2.60053
21.88	2.62388
21.89	2.58441
21.9	2.59428
21.91	2.61401
21.92	2.61467
21.93	2.60612
21.94	2.60678
21.95	2.57388
21.96	2.58046
21.97	2.58638
21.98	2.59428
21.99	2.58474
22	2.58474
22.01	2.6048
22.02	2.5877
22.03	2.58572
22.04	2.61105
22.05	2.59099
22.06	2.55743
22.07	2.60118
22.08	2.59099
22.09	2.59691
22.1	2.62323
22.11	2.63013
22.12	2.615
22.13	2.60776
22.14	2.57224
22.15	2.60415
22.16	2.59
22.17	2.5798
22.18	2.59888
22.19	2.59461
22.2	2.57421
22.21	2.59658
22.22	2.58901
22.23	2.57322
22.24	2.56928
22.25	2.58868
22.26	2.58934
22.27	2.58836
22.28	2.60645
22.29	2.60513
22.3	2.59329
22.31	2.59165
22.32	2.57553
22.33	2.59329
22.34	2.63046
22.35	2.59066
22.36	2.60415
22.37	2.57191
22.38	2.57553
22.39	2.58243
22.4	2.61566
22.41	2.6048
22.42	2.6252
22.43	2.58737
22.44	2.59395
22.45	2.56796
22.46	2.5979
22.47	2.59691
22.48	2.60579
22.49	2.57487
22.5	2.59954
22.51	2.59197
22.52	2.58901
22.53	2.59625
22.54	2.60711
22.55	2.60776
22.56	2.58803
22.57	2.58046
22.58	2.5877
22.59	2.57158
22.6	2.58572
22.61	2.57421
22.62	2.58934
22.63	2.59691
22.64	2.60349
22.65	2.59592
22.66	2.58836
22.67	2.59329
22.68	2.58934
22.69	2.57289
22.7	2.56533
22.71	2.62849
22.72	2.61632
22.73	2.6104
22.74	2.60809
22.75	2.58408
22.76	2.60184
22.77	2.58079
22.78	2.58112
22.79	2.6127
22.8	2.56632
22.81	2.59263
22.82	2.58145
22.83	2.58605
22.84	2.61599
22.85	2.59954
22.86	2.60842
22.87	2.58572
22.88	2.59855
22.89	2.61401
22.9	2.61138
22.91	2.58704
22.92	2.57322
22.93	2.58013
22.94	2.57388
22.95	2.55743
22.96	2.56993
22.97	2.58309
22.98	2.59888
22.99	2.61138
23	2.56895
23.01	2.55776
23.02	2.58079
23.03	2.56533
23.04	2.57191
23.05	2.55283
23.06	2.58474
23.07	2.56993
23.08	2.59987
23.09	2.60809
23.1	2.58276
23.11	2.57618
23.12	2.58243
23.13	2.56632
23.14	2.55974
23.15	2.59066
23.16	2.61138
23.17	2.60086
23.18	2.59099
23.19	2.59
23.2	2.57487
23.21	2.59165
23.22	2.60217
23.23	2.59559
23.24	2.58836
23.25	2.58276
23.26	2.57026
23.27	2.57026
23.28	2.60711
23.29	2.60447
23.3	2.59
23.31	2.56237
23.32	2.60809
23.33	2.59592
23.34	2.56895
23.35	2.59987
23.36	2.59822
23.37	2.58013
23.38	2.58605
23.39	2.60908
23.4	2.56401
23.41	2.57618
23.42	2.59263
23.43	2.55151
23.44	2.57816
23.45	2.58671
23.46	2.61237
23.47	2.58441
23.48	2.58638
23.49	2.61369
23.5	2.59822
23.51	2.59625
23.52	2.56763
23.53	2.60283
23.54	2.59099
23.55	2.6025
23.56	2.59296
23.57	2.59625
23.58	2.59033
23.59	2.57586
23.6	2.5979
23.61	2.5798
23.62	2.59987
23.63	2.62125
23.64	2.58704
23.65	2.61697
23.66	2.61599
23.67	2.59559
23.68	2.56566
23.69	2.59296
23.7	2.59822
23.71	2.57388
23.72	2.60184
23.73	2.59724
23.74	2.60086
23.75	2.60842
23.76	2.56599
23.77	2.60513
23.78	2.62323
23.79	2.60744
23.8	2.60382
23.81	2.60151
23.82	2.60316
23.83	2.59526
23.84	2.61105
23.85	2.58671
23.86	2.60908
23.87	2.58967
23.88	2.58408
23.89	2.59724
23.9	2.60513
23.91	2.61994
23.92	2.60678
23.93	2.58803
23.94	2.61599
23.95	2.58967
23.96	2.57355
23.97	2.58868
23.98	2.59855
23.99	2.60316
24	2.60612
24.01	2.58046
24.02	2.59
24.03	2.61829
24.04	2.59888
24.05	2.62092
24.06	2.61138
24.07	2.62257
24.08	2.59033
24.09	2.61105
24.1	2.57586
24.11	2.57388
24.12	2.60217
24.13	2.62059
24.14	2.5752
24.15	2.60711
24.16	2.59362
24.17	2.57487
24.18	2.57421
24.19	2.5923
24.2	2.58507
24.21	2.59033
24.22	2.59592
24.23	2.56664
24.24	2.59132
24.25	2.60809
24.26	2.6048
24.27	2.62026
24.28	2.59132
24.29	2.57947
24.3	2.55842
24.31	2.58276
24.32	2.58868
24.33	2.58539
24.34	2.59493
24.35	2.55447
24.36	2.59033
24.37	2.59625
24.38	2.6025
24.39	2.56303
24.4	2.5775
24.41	2.60053
24.42	2.58079
24.43	2.60151
24.44	2.58704
24.45	2.62816
24.46	2.59921
24.47	2.58112
24.48	2.62882
24.49	2.62026
24.5	2.58704
24.51	2.57947
24.52	2.60283
24.53	2.60678
24.54	2.58507
24.55	2.57586
24.56	2.60744
24.57	2.63211
24.58	2.615
24.59	2.59921
24.6	2.60941
24.61	2.6025
24.62	2.62059
24.63	2.59197
24.64	2.59526
24.65	2.6002
24.66	2.58572
24.67	2.57816
24.68	2.59592
24.69	2.57783
24.7	2.58178
24.71	2.59099
24.72	2.58671
24.73	2.61665
24.74	2.57947
24.75	2.57092
24.76	2.58638
24.77	2.58605
24.78	2.58803
24.79	2.55513
24.8	2.57783
24.81	2.56763
24.82	2.63079
24.83	2.6173
24.84	2.63342
24.85	2.62388
24.86	2.59855
24.87	2.59197
24.88	2.58737
24.89	2.60711
24.9	2.57914
24.91	2.58803
24.92	2.60118
24.93	2.59888
24.94	2.61336
24.95	2.57651
24.96	2.55645
24.97	2.56632
24.98	2.59296
24.99	2.61105
25	2.57849
25.01	2.58901
25.02	2.58112
25.03	2.58572
25.04	2.58572
25.05	2.56928
25.06	2.58342
25.07	2.56335
25.08	2.60316
25.09	2.57651
25.1	2.58474
25.11	2.61566
25.12	2.60645
25.13	2.57816
25.14	2.58211
25.15	2.55645
25.16	2.58704
25.17	2.59592
25.18	2.57158
25.19	2.60217
25.2	2.59165
25.21	2.57717
25.22	2.53441
25.23	2.56303
25.24	2.58474
25.25	2.59197
25.26	2.57914
25.27	2.57849
25.28	2.55842
25.29	2.57289
25.3	2.6002
25.31	2.57684
25.32	2.58309
25.33	2.54066
25.34	2.56895
25.35	2.59033
25.36	2.60447
25.37	2.60645
25.38	2.59658
25.39	2.58967
25.4	2.55151
25.41	2.60151
25.42	2.57947
25.43	2.58441
25.44	2.57355
25.45	2.59658
25.46	2.58836
25.47	2.59296
25.48	2.61862
25.49	2.58474
25.5	2.60776
25.51	2.59493
25.52	2.59461
25.53	2.56697
25.54	2.58967
25.55	2.5798
25.56	2.5673
25.57	2.57914
25.58	2.56829
25.59	2.58013
25.6	2.59921
25.61	2.61697
25.62	2.58572
25.63	2.57257
25.64	2.59954
25.65	2.61303
25.66	2.59066
25.67	2.57487
25.68	2.59329
25.69	2.58868
25.7	2.5979
25.71	2.59099
25.72	2.58934
25.73	2.58671
25.74	2.61204
25.75	2.60118
25.76	2.56796
25.77	2.59954
25.78	2.57026
25.79	2.60809
25.8	2.59691
25.81	2.60184
25.82	2.60941
25.83	2.61138
25.84	2.57224
25.85	2.56401
25.86	2.63408
25.87	2.60579
25.88	2.59559
25.89	2.55316
25.9	2.56993
25.91	2.58934
25.92	2.58868
25.93	2.60744
25.94	2.58704
25.95	2.60316
25.96	2.58605
25.97	2.59888
25.98	2.58605
25.99	2.55941
26	2.58178
26.01	2.57289
26.02	2.56664
26.03	2.61533
26.04	2.60184
26.05	2.59099
26.06	2.59033
26.07	2.57355
26.08	2.58836
26.09	2.6229
26.1	2.57289
26.11	2.58704
26.12	2.59066
26.13	2.58803
26.14	2.57947
26.15	2.615
26.16	2.57783
26.17	2.53868
26.18	2.59066
26.19	2.59658
26.2	2.60184
26.21	2.60974
26.22	2.59888
26.23	2.57289
26.24	2.58441
26.25	2.56401
26.26	2.57224
26.27	2.56171
26.28	2.58572
26.29	2.59
26.3	2.59658
26.31	2.60842
26.32	2.57717
26.33	2.5673
26.34	2.58967
26.35	2.60941
26.36	2.56566
26.37	2.59033
26.38	2.60546
26.39	2.6298
26.4	2.61697
26.41	2.59888
26.42	2.5775
26.43	2.63211
26.44	2.62355
26.45	2.63638
26.46	2.61171
26.47	2.58276
26.48	2.58901
26.49	2.61763
26.5	2.58243
26.51	2.57388
26.52	2.56993
26.53	2.59066
26.54	2.57224
26.55	2.57158
26.56	2.60941
26.57	2.61007
26.58	2.60118
26.59	2.56664
26.6	2.57914
26.61	2.58901
26.62	2.58211
26.63	2.57783
26.64	2.58836
26.65	2.61895
26.66	2.59559
26.67	2.61369
26.68	2.58046
26.69	2.57882
26.7	2.58967
26.71	2.60513
26.72	2.60053
26.73	2.58112
26.74	2.5798
26.75	2.5923
26.76	2.58967
26.77	2.59625
26.78	2.61007
26.79	2.60086
26.8	2.56401
26.81	2.63112
26.82	2.62717
26.83	2.59165
26.84	2.61204
26.85	2.59757
26.86	2.58243
26.87	2.57257
26.88	2.58342
26.89	2.58704
26.9	2.58178
26.91	2.59559
26.92	2.58342
26.93	2.60809
26.94	2.58309
26.95	2.59526
26.96	2.58474
26.97	2.5923
26.98	2.57421
26.99	2.59329
27	2.61632
27.01	2.60118
27.02	2.59493
27.03	2.6229
27.04	2.58211
27.05	2.57553
27.06	2.60086
27.07	2.57224
27.08	2.59132
27.09	2.58539
27.1	2.62717
27.11	2.62158
27.12	2.60612
27.13	2.58572
27.14	2.58605
27.15	2.58112
27.16	2.58671
27.17	2.57553
27.18	2.57783
27.19	2.57421
27.2	2.57191
27.21	2.59066
27.22	2.58375
27.23	2.59296
27.24	2.58178
27.25	2.61138
27.26	2.58243
27.27	2.58013
27.28	2.60447
27.29	2.59329
27.3	2.58704
27.31	2.58671
27.32	2.58211
27.33	2.59099
27.34	2.57158
27.35	2.58836
27.36	2.59132
27.37	2.57092
27.38	2.58572
27.39	2.59493
27.4	2.57618
27.41	2.56401
27.42	2.59428
27.43	2.58408
27.44	2.5696
27.45	2.55678
27.46	2.57487
27.47	2.59296
27.48	2.56105
27.49	2.58836
27.5	2.60711
27.51	2.58671
27.52	2.56697
27.53	2.5775
27.54	2.58408
27.55	2.57092
27.56	2.57125
27.57	2.5696
27.58	2.58243
27.59	2.59099
27.6	2.59954
27.61	2.57914
27.62	2.57191
27.63	2.54658
27.64	2.55809
27.65	2.59329
27.66	2.57092
27.67	2.57914
27.68	2.6173
27.69	2.5877
27.7	2.57618
27.71	2.58836
27.72	2.59066
27.73	2.58507
27.74	2.58276
27.75	2.58901
27.76	2.56632
27.77	2.58836
27.78	2.57421
27.79	2.59658
27.8	2.55875
27.81	2.56928
27.82	2.58079
27.83	2.58539
27.84	2.5877
27.85	2.62882
27.86	2.60415
27.87	2.59559
27.88	2.56928
27.89	2.57059
27.9	2.59197
27.91	2.59691
27.92	2.57947
27.93	2.56928
27.94	2.58309
27.95	2.59329
27.96	2.57059
27.97	2.5571
27.98	2.56796
27.99	2.58309
28	2.58638
28.01	2.58474
28.02	2.55513
28.03	2.56862
28.04	2.58572
28.05	2.62026
28.06	2.60908
28.07	2.58901
28.08	2.60908
28.09	2.6002
28.1	2.58507
28.11	2.54921
28.12	2.57618
28.13	2.60744
28.14	2.59165
28.15	2.58704
28.16	2.58013
28.17	2.56401
28.18	2.58178
28.19	2.57125
28.2	2.5877
28.21	2.57684
28.22	2.60579
28.23	2.57717
28.24	2.58967
28.25	2.61961
28.26	2.58474
28.27	2.60415
28.28	2.59461
28.29	2.6002
28.3	2.61434
28.31	2.56895
28.32	2.58836
28.33	2.5877
28.34	2.5798
28.35	2.58507
28.36	2.61138
28.37	2.60217
28.38	2.59592
28.39	2.57026
28.4	2.59428
28.41	2.59066
28.42	2.61665
28.43	2.59526
28.44	2.57717
28.45	2.57684
28.46	2.59329
28.47	2.57454
28.48	2.60612
28.49	2.59658
28.5	2.59724
28.51	2.63342
28.52	2.60184
28.53	2.59329
28.54	2.58309
28.55	2.59592
28.56	2.62092
28.57	2.58079
28.58	2.57059
28.59	2.5696
28.6	2.55743
28.61	2.5696
28.62	2.58243
28.63	2.56829
28.64	2.58539
28.65	2.60579
28.66	2.57947
28.67	2.55283
28.68	2.56664
28.69	2.57289
28.7	2.5979
28.71	2.58671
28.72	2.58704
28.73	2.60053
28.74	2.59395
28.75	2.58474
28.76	2.56697
28.77	2.59658
28.78	2.60283
28.79	2.56335
28.8	2.58408
28.81	2.57618
28.82	2.61105
28.83	2.60053
28.84	2.58803
28.85	2.60875
28.86	2.58408
28.87	2.5775
28.88	2.5752
28.89	2.57914
28.9	2.58441
28.91	2.5979
28.92	2.59658
28.93	2.58112
28.94	2.5673
28.95	2.57947
28.96	2.58013
28.97	2.62059
28.98	2.59757
28.99	2.58441
29	2.55414
29.01	2.56862
29.02	2.57322
29.03	2.58868
29.04	2.6002
29.05	2.60316
29.06	2.58309
29.07	2.5923
29.08	2.58539
29.09	2.58079
29.1	2.5673
29.11	2.565
29.12	2.56467
29.13	2.55316
29.14	2.57618
29.15	2.59526
29.16	2.60053
29.17	2.60349
29.18	2.57717
29.19	2.57882
29.2	2.59395
29.21	2.5923
29.22	2.58474
29.23	2.57257
29.24	2.59197
29.25	2.60678
29.26	2.57026
29.27	2.59921
29.28	2.58309
29.29	2.59329
29.3	2.60217
29.31	2.58638
29.32	2.5877
29.33	2.58309
29.34	2.56599
29.35	2.57553
29.36	2.58737
29.37	2.58013
29.38	2.57355
29.39	2.58112
29.4	2.61105
29.41	2.57355
29.42	2.57224
29.43	2.58901
29.44	2.5775
29.45	2.58342
29.46	2.54921
29.47	2.55875
29.48	2.57586
29.49	2.57026
29.5	2.57158
29.51	2.5775
29.52	2.58276
29.53	2.56895
29.54	2.57289
29.55	2.57289
29.56	2.59132
29.57	2.58309
29.58	2.5798
29.59	2.58441
29.6	2.56599
29.61	2.58605
29.62	2.60086
29.63	2.5696
29.64	2.59165
29.65	2.60283
29.66	2.58539
29.67	2.5752
29.68	2.59033
29.69	2.57882
29.7	2.57224
29.71	2.54724
29.72	2.58737
29.73	2.58638
29.74	2.58178
29.75	2.59592
29.76	2.56895
29.77	2.55974
29.78	2.56928
29.79	2.57553
29.8	2.57684
29.81	2.60711
29.82	2.60086
29.83	2.55809
29.84	2.58375
29.85	2.61533
29.86	2.60776
29.87	2.58441
29.88	2.59428
29.89	2.58868
29.9	2.56335
29.91	2.55184
29.92	2.58507
29.93	2.59099
29.94	2.57158
29.95	2.56829
29.96	2.58375
29.97	2.59888
29.98	2.58243
29.99	2.58079
30	2.57421
