"BIO-KINE ASCII FILE"
"_COMMENT"	"MOS-500 Spectrometer"
"_COMMENT"	"Kinetics measurement"
"_COMMENT"	"Y Unit : Volt,  X Unit : s"
"_COMMENT"	"Excitation wavelength : 380 nm"
"_COMMENT"	"Fentes bandwidth =  1 nm"
"_COMMENT"	"HV= 850V"
"_COMMENT"	"Timebase  1 =  .02 s   1501 pts"
"_SFM"	"SFM-400 /S  Advanced mode"
"_SFM"	"Ratio : S1: 2.5, S2: 0, S3: 0, S4: 1"
"_SFM"	"Content : S1: , S2: , S3: , S4:"
"_SFM"	"Concentration : S1: , S2: , S3: , S4:"
"_SFM"	"Total volume : 209 µl  Flow : 3.5 mL/s"
"_SFM"	"Acquisition start :  10 ms before stop"
"_SFM"	"cuve=FC-15, s1=10 ml , s2=10 ml , s3=10 ml , s4=1.9 ml"
"_UNITX"	"s"
"_UNITY"	"Volt"
"_DELTAX"	0
"_DATA"
0	3.96554
0.02	4.39532
0.04	4.46046
0.06	4.44022
0.08	4.48151
0.1	4.47921
0.12	4.49483
0.14	4.48809
0.16	4.47378
0.18	4.46128
0.2	4.48184
0.22	4.4621
0.24	4.46621
0.26	4.46128
0.28	4.44779
0.3	4.44319
0.32	4.44861
0.34	4.43726
0.36	4.44565
0.38	4.44894
0.4	4.44532
0.42	4.41243
0.44	4.41687
0.46	4.42016
0.48	4.42328
0.5	4.41506
0.52	4.41243
0.54	4.41062
0.56	4.38792
0.58	4.38332
0.6	4.3797
0.62	4.39236
0.64	4.37147
0.66	4.37032
0.68	4.39236
0.7	4.37295
0.72	4.37542
0.74	4.36045
0.76	4.34466
0.78	4.34368
0.8	4.33693
0.82	4.33578
0.84	4.34006
0.86	4.33052
0.88	4.32098
0.9	4.30831
0.92	4.3246
0.94	4.30453
0.96	4.319
0.98	4.29647
1	4.3065
1.02	4.28397
1.04	4.3014
1.06	4.28693
1.08	4.28167
1.1	4.26818
1.12	4.26061
1.14	4.26209
1.16	4.26785
1.18	4.25716
1.2	4.25206
1.22	4.26357
1.24	4.25568
1.26	4.24598
1.28	4.23956
1.3	4.22936
1.32	4.20699
1.34	4.21966
1.36	4.20815
1.38	4.19022
1.4	4.18183
1.42	4.17936
1.44	4.18512
1.46	4.18726
1.48	4.17722
1.5	4.18002
1.52	4.17854
1.54	4.17591
1.56	4.17426
1.58	4.16522
1.6	4.16834
1.62	4.1412
1.64	4.13989
1.66	4.13972
1.68	4.14795
1.7	4.14581
1.72	4.13068
1.74	4.11554
1.76	4.11571
1.78	4.10173
1.8	4.10123
1.82	4.119
1.84	4.09992
1.86	4.08462
1.88	4.08347
1.9	4.08873
1.92	4.06982
1.94	4.05946
1.96	4.06834
1.98	4.06653
2	4.07755
2.02	4.0588
2.04	4.07689
2.06	4.06011
2.08	4.05041
2.1	4.0514
2.12	4.02705
2.14	4.04087
2.16	4.02146
2.18	4.03347
2.2	4.00913
2.22	4.01883
2.24	4.02672
2.26	4.00732
2.28	3.9907
2.3	3.99893
2.32	3.98906
2.34	3.98659
2.36	3.98166
2.38	3.99202
2.4	3.96817
2.42	3.98248
2.44	3.97639
2.46	3.9708
2.48	3.95567
2.5	3.94646
2.52	3.94301
2.54	3.92606
2.56	3.93708
2.58	3.92541
2.6	3.93347
2.62	3.93281
2.64	3.9208
2.66	3.91077
2.68	3.89794
2.7	3.92212
2.72	3.9111
2.74	3.89284
2.76	3.91768
2.78	3.90748
2.8	3.91356
2.82	3.89317
2.84	3.88149
2.86	3.89235
2.88	3.87787
2.9	3.88511
2.92	3.86257
2.94	3.85961
2.96	3.87968
2.98	3.86537
3	3.86356
3.02	3.85698
3.04	3.85797
3.06	3.84103
3.08	3.84547
3.1	3.84728
3.12	3.85336
3.14	3.83708
3.16	3.81882
3.18	3.81356
3.2	3.80484
3.22	3.81422
3.24	3.8129
3.26	3.81109
3.28	3.81488
3.3	3.8208
3.32	3.79958
3.34	3.80698
3.36	3.7833
3.38	3.78938
3.4	3.7856
3.42	3.7902
3.44	3.77047
3.46	3.77047
3.48	3.77853
3.5	3.77606
3.52	3.76109
3.54	3.73741
3.56	3.76932
3.58	3.75501
3.6	3.7203
3.62	3.72343
3.64	3.71421
3.66	3.73
3.68	3.71668
3.7	3.70961
3.72	3.72507
3.74	3.71241
3.76	3.71997
3.78	3.69514
3.8	3.71619
3.82	3.68773
3.84	3.69283
3.86	3.68642
3.88	3.67918
3.9	3.6879
3.92	3.68839
3.94	3.6749
3.96	3.66833
3.98	3.65221
4	3.67967
4.02	3.67408
4.04	3.66043
4.06	3.68691
4.08	3.65944
4.1	3.65254
4.12	3.65829
4.14	3.65336
4.16	3.6323
4.18	3.64661
4.2	3.63099
4.22	3.62638
4.24	3.63609
4.26	3.63477
4.28	3.63198
4.3	3.61997
4.32	3.6129
4.34	3.61191
4.36	3.61059
4.38	3.61947
4.4	3.60862
4.42	3.60566
4.44	3.61306
4.46	3.61388
4.48	3.58444
4.5	3.58016
4.52	3.58378
4.54	3.59003
4.56	3.57704
4.58	3.58362
4.6	3.57868
4.62	3.57868
4.64	3.57161
4.66	3.55056
4.68	3.5476
4.7	3.55615
4.72	3.56026
4.74	3.57539
4.76	3.55204
4.78	3.56108
4.8	3.5351
4.82	3.53921
4.84	3.5402
4.86	3.54529
4.88	3.54562
4.9	3.51848
4.92	3.5073
4.94	3.52177
4.96	3.50566
4.98	3.51881
5	3.50927
5.02	3.50187
5.04	3.51371
5.06	3.52112
5.08	3.50664
5.1	3.49908
5.12	3.5124
5.14	3.52046
5.16	3.50006
5.18	3.50187
5.2	3.48987
5.22	3.49694
5.24	3.49743
5.26	3.47638
5.28	3.4897
5.3	3.49118
5.32	3.46519
5.34	3.47983
5.36	3.4726
5.38	3.47309
5.4	3.46585
5.42	3.46355
5.44	3.47046
5.46	3.46009
5.48	3.43921
5.5	3.45697
5.52	3.45631
5.54	3.4244
5.56	3.42342
5.58	3.44875
5.6	3.42407
5.62	3.43723
5.64	3.42687
5.66	3.42029
5.68	3.42523
5.7	3.41569
5.72	3.41174
5.74	3.40467
5.76	3.41305
5.78	3.40927
5.8	3.4045
5.82	3.40828
5.84	3.40417
5.86	3.38295
5.88	3.3994
5.9	3.38443
5.92	3.38937
5.94	3.3846
5.96	3.39299
5.98	3.38394
6	3.3846
6.02	3.36996
6.04	3.38427
6.06	3.37177
6.08	3.36634
6.1	3.35285
6.12	3.36535
6.14	3.3573
6.16	3.3591
6.18	3.35335
6.2	3.34924
6.22	3.34249
6.24	3.33131
6.26	3.35516
6.28	3.34825
6.3	3.33131
6.32	3.33887
6.34	3.34397
6.36	3.33312
6.38	3.3216
6.4	3.32835
6.42	3.32604
6.44	3.33542
6.46	3.34019
6.48	3.33098
6.5	3.33279
6.52	3.32752
6.54	3.31815
6.56	3.32308
6.58	3.32078
6.6	3.29808
6.62	3.31075
6.64	3.31206
6.66	3.31864
6.68	3.30696
6.7	3.33081
6.72	3.31256
6.74	3.29562
6.76	3.29529
6.78	3.29529
6.8	3.31042
6.82	3.29282
6.84	3.29233
6.86	3.30466
6.88	3.28608
6.9	3.29545
6.92	3.26996
6.94	3.27127
6.96	3.2642
6.98	3.28394
7	3.26272
7.02	3.25729
7.04	3.26124
7.06	3.26486
7.08	3.254
7.1	3.24742
7.12	3.26288
7.14	3.25088
7.16	3.25219
7.18	3.24808
7.2	3.24644
7.22	3.25992
7.24	3.25055
7.26	3.2489
7.28	3.25203
7.3	3.23821
7.32	3.24627
7.34	3.24907
7.36	3.24413
7.38	3.25302
7.4	3.24232
7.42	3.24726
7.44	3.22094
7.46	3.22917
7.48	3.21798
7.5	3.23246
7.52	3.23969
7.54	3.21683
7.56	3.2239
7.58	3.21568
7.6	3.2369
7.62	3.22719
7.64	3.21831
7.66	3.20943
7.68	3.21206
7.7	3.21453
7.72	3.19775
7.74	3.19627
7.76	3.20005
7.78	3.20713
7.8	3.19183
7.82	3.1943
7.84	3.19956
7.86	3.17111
7.88	3.17949
7.9	3.17933
7.92	3.19117
7.94	3.19117
7.96	3.19643
7.98	3.19857
8	3.19512
8.02	3.1762
8.04	3.16798
8.06	3.17867
8.08	3.15515
8.1	3.15367
8.12	3.15416
8.14	3.17291
8.16	3.16913
8.18	3.16666
8.2	3.16979
8.22	3.15795
8.24	3.15104
8.26	3.15252
8.28	3.1461
8.3	3.15795
8.32	3.14857
8.34	3.16025
8.36	3.14841
8.38	3.16436
8.4	3.15071
8.42	3.15071
8.44	3.14364
8.46	3.13673
8.48	3.14265
8.5	3.12686
8.52	3.13147
8.54	3.14084
8.56	3.13426
8.58	3.1341
8.6	3.13311
8.62	3.1336
8.64	3.12423
8.66	3.12242
8.68	3.13887
8.7	3.13607
8.72	3.13015
8.74	3.12193
8.76	3.1137
8.78	3.12291
8.8	3.10614
8.82	3.1165
8.84	3.12554
8.86	3.116
8.88	3.1137
8.9	3.10318
8.92	3.09446
8.94	3.11025
8.96	3.10466
8.98	3.11387
9	3.10943
9.02	3.10038
9.04	3.09742
9.06	3.10252
9.08	3.10449
9.1	3.10367
9.12	3.1063
9.14	3.09923
9.16	3.09035
9.18	3.08887
9.2	3.08804
9.22	3.08212
9.24	3.08426
9.26	3.079
9.28	3.0785
9.3	3.07686
9.32	3.09413
9.34	3.06814
9.36	3.08525
9.38	3.07768
9.4	3.08179
9.42	3.08426
9.44	3.07225
9.46	3.07785
9.48	3.05811
9.5	3.07044
9.52	3.06946
9.54	3.07982
9.56	3.06156
9.58	3.08245
9.6	3.08755
9.62	3.06304
9.64	3.07357
9.66	3.06567
9.68	3.07077
9.7	3.079
9.72	3.05696
9.74	3.04758
9.76	3.04544
9.78	3.05679
9.8	3.05284
9.82	3.05893
9.84	3.04561
9.86	3.05235
9.88	3.04972
9.9	3.05334
9.92	3.05465
9.94	3.05071
9.96	3.0387
9.98	3.04824
10	3.05548
10.02	3.03311
10.04	3.04117
10.06	3.03936
10.08	3.02784
10.1	3.05186
10.12	3.04051
10.14	3.03821
10.16	3.03969
10.18	3.02735
10.2	3.02768
10.22	3.01814
10.24	3.03475
10.26	3.0137
10.28	3.01765
10.3	3.01057
10.32	3.03179
10.34	3.02521
10.36	3.01501
10.38	3.02225
10.4	3.02028
10.42	3.02357
10.44	3.02702
10.46	3.01123
10.48	3.01748
10.5	3.01995
10.52	3.02061
10.54	3.01271
10.56	3.01551
10.58	3.03196
10.6	3.02225
10.62	3.01551
10.64	3.01057
10.66	3.00021
10.68	3.00613
10.7	3.00646
10.72	3.00054
10.74	2.99396
10.76	3.00515
10.78	2.99676
10.8	3.00465
10.82	3.00153
10.84	2.98804
10.86	2.9984
10.88	3.016
10.9	2.98837
10.92	3.00564
10.94	3.00087
10.96	3.00219
10.98	2.98212
11	2.98903
11.02	2.98788
11.04	2.99692
11.06	2.98903
11.08	2.98968
11.1	2.99347
11.12	3.00087
11.14	2.99281
11.16	3.00202
11.18	2.98919
11.2	2.98047
11.22	2.97998
11.24	2.98722
11.26	2.9836
11.28	2.96814
11.3	2.98574
11.32	2.98311
11.34	2.96074
11.36	2.97603
11.38	2.96386
11.4	2.9637
11.42	2.96057
11.44	2.97768
11.46	2.97373
11.48	2.95498
11.5	2.9563
11.52	2.9609
11.54	2.96616
11.56	2.96074
11.58	2.97159
11.6	2.97258
11.62	2.96567
11.64	2.9563
11.66	2.97061
11.68	2.95712
11.7	2.96123
11.72	2.94626
11.74	2.94593
11.76	2.96386
11.78	2.9586
11.8	2.9507
11.82	2.95218
11.84	2.95991
11.86	2.9581
11.88	2.96107
11.9	2.9456
11.92	2.96205
11.94	2.95218
11.96	2.94215
11.98	2.95235
12	2.95926
12.02	2.96139
12.04	2.94659
12.06	2.96255
12.08	2.94725
12.1	2.94708
12.12	2.95728
12.14	2.94939
12.16	2.94511
12.18	2.94758
12.2	2.94708
12.22	2.94758
12.24	2.94873
12.26	2.95465
12.28	2.94083
12.3	2.93047
12.32	2.95613
12.34	2.94692
12.36	2.93162
12.38	2.96353
12.4	2.94166
12.42	2.94725
12.44	2.94791
12.46	2.95169
12.48	2.93129
12.5	2.9382
12.52	2.93985
12.54	2.94725
12.56	2.94067
12.58	2.93804
12.6	2.92636
12.62	2.91485
12.64	2.92817
12.66	2.92899
12.68	2.9308
12.7	2.94445
12.72	2.93442
12.74	2.92718
12.76	2.93014
12.78	2.92225
12.8	2.92241
12.82	2.93097
12.84	2.92652
12.86	2.92258
12.88	2.92866
12.9	2.93541
12.92	2.92093
12.94	2.92504
12.96	2.92455
12.98	2.91633
13	2.91698
13.02	2.91616
13.04	2.90054
13.06	2.9285
13.08	2.91419
13.1	2.91468
13.12	2.91518
13.14	2.9058
13.16	2.92472
13.18	2.91929
13.2	2.91402
13.22	2.91172
13.24	2.90958
13.26	2.92472
13.28	2.91419
13.3	2.90662
13.32	2.90843
13.34	2.91304
13.36	2.89971
13.38	2.9183
13.4	2.91797
13.42	2.90432
13.44	2.90679
13.46	2.90383
13.48	2.89396
13.5	2.90909
13.52	2.89856
13.54	2.88919
13.56	2.90251
13.58	2.90761
13.6	2.90531
13.62	2.90547
13.64	2.89544
13.66	2.88129
13.68	2.90087
13.7	2.90037
13.72	2.89873
13.74	2.8933
13.76	2.8933
13.78	2.89988
13.8	2.89577
13.82	2.89527
13.84	2.89034
13.86	2.90087
13.88	2.90333
13.9	2.89659
13.92	2.88228
13.94	2.90662
13.96	2.90087
13.98	2.90596
14	2.89396
14.02	2.89379
14.04	2.91106
14.06	2.8831
14.08	2.90119
14.1	2.89264
14.12	2.89692
14.14	2.8854
14.16	2.89116
14.18	2.89166
14.2	2.89988
14.22	2.89149
14.24	2.89478
14.26	2.87784
14.28	2.89346
14.3	2.88606
14.32	2.89758
14.34	2.88063
14.36	2.88524
14.38	2.89511
14.4	2.89133
14.42	2.90383
14.44	2.87965
14.46	2.88573
14.48	2.88376
14.5	2.87225
14.52	2.8757
14.54	2.87455
14.56	2.88392
14.58	2.87981
14.6	2.88228
14.62	2.87241
14.64	2.87488
14.66	2.8757
14.68	2.86731
14.7	2.86682
14.72	2.86238
14.74	2.87373
14.76	2.88853
14.78	2.8683
14.8	2.87373
14.82	2.86665
14.84	2.87044
14.86	2.86764
14.88	2.87455
14.9	2.87751
14.92	2.88409
14.94	2.86287
14.96	2.86435
14.98	2.86945
15	2.86616
15.02	2.85547
15.04	2.87406
15.06	2.87126
15.08	2.8757
15.1	2.87258
15.12	2.86781
15.14	2.87192
15.16	2.87965
15.18	2.88162
15.2	2.87011
15.22	2.86369
15.24	2.86271
15.26	2.86781
15.28	2.86106
15.3	2.86188
15.32	2.86336
15.34	2.86517
15.36	2.85925
15.38	2.86304
15.4	2.86435
15.42	2.85876
15.44	2.84675
15.46	2.85514
15.48	2.86665
15.5	2.85152
15.52	2.8604
15.54	2.87027
15.56	2.86649
15.58	2.86715
15.6	2.85794
15.62	2.86238
15.64	2.86008
15.66	2.86172
15.68	2.85613
15.7	2.85563
15.72	2.8433
15.74	2.86271
15.76	2.85498
15.78	2.85481
15.8	2.85481
15.82	2.8507
15.84	2.86008
15.86	2.85021
15.88	2.86205
15.9	2.85333
15.92	2.85333
15.94	2.86698
15.96	2.87389
15.98	2.84478
16	2.8382
16.02	2.85169
16.04	2.84741
16.06	2.84577
16.08	2.8484
16.1	2.84856
16.12	2.85152
16.14	2.84182
16.16	2.86238
16.18	2.84379
16.2	2.85382
16.22	2.85119
16.24	2.85333
16.26	2.85152
16.28	2.84445
16.3	2.84396
16.32	2.85004
16.34	2.84593
16.36	2.84346
16.38	2.85761
16.4	2.83787
16.42	2.83869
16.44	2.85152
16.46	2.841
16.48	2.82899
16.5	2.85202
16.52	2.8405
16.54	2.841
16.56	2.841
16.58	2.85086
16.6	2.84938
16.62	2.84067
16.64	2.84132
16.66	2.83787
16.68	2.85465
16.7	2.84429
16.72	2.84955
16.74	2.84577
16.76	2.8285
16.78	2.83277
16.8	2.8331
16.82	2.82586
16.84	2.84346
16.86	2.82422
16.88	2.81813
16.9	2.828
16.92	2.83409
16.94	2.84873
16.96	2.82521
16.98	2.8507
17	2.83343
17.02	2.8479
17.04	2.83343
17.06	2.85876
17.08	2.82471
17.1	2.8479
17.12	2.83113
17.14	2.82224
17.16	2.82899
17.18	2.83261
17.2	2.8382
17.22	2.8428
17.24	2.82044
17.26	2.82521
17.28	2.83096
17.3	2.83606
17.32	2.82767
17.34	2.83738
17.36	2.83836
17.38	2.83063
17.4	2.82438
17.42	2.84198
17.44	2.83853
17.46	2.83853
17.48	2.84116
17.5	2.83721
17.52	2.84692
17.54	2.82488
17.56	2.83475
17.58	2.82586
17.6	2.82751
17.62	2.84445
17.64	2.83326
17.66	2.83655
17.68	2.81879
17.7	2.81978
17.72	2.82866
17.74	2.83047
17.76	2.82175
17.78	2.84429
17.8	2.81221
17.82	2.81896
17.84	2.83623
17.86	2.83047
17.88	2.82833
17.9	2.82767
17.92	2.83803
17.94	2.82603
17.96	2.82224
17.98	2.81928
18	2.84379
18.02	2.82817
18.04	2.81353
18.06	2.82981
18.08	2.81961
18.1	2.8229
18.12	2.82389
18.14	2.81599
18.16	2.82784
18.18	2.83096
18.2	2.8229
18.22	2.81896
18.24	2.81945
18.26	2.81402
18.28	2.81007
18.3	2.83392
18.32	2.82323
18.34	2.8206
18.36	2.82833
18.38	2.82455
18.4	2.81419
18.42	2.8081
18.44	2.81616
18.46	2.82208
18.48	2.81731
18.5	2.82899
18.52	2.82142
18.54	2.82981
18.56	2.81501
18.58	2.82932
18.6	2.80662
18.62	2.81912
18.64	2.81287
18.66	2.81665
18.68	2.82011
18.7	2.82438
18.72	2.81172
18.74	2.81534
18.76	2.82652
18.78	2.8155
18.8	2.80826
18.82	2.82307
18.84	2.82718
18.86	2.8155
18.88	2.80185
18.9	2.81353
18.92	2.81122
18.94	2.80876
18.96	2.80596
18.98	2.82504
19	2.81303
19.02	2.81747
19.04	2.81764
19.06	2.81616
19.08	2.82257
19.1	2.81484
19.12	2.80613
19.14	2.81961
19.16	2.81632
19.18	2.81715
19.2	2.81303
19.22	2.79872
19.24	2.79034
19.26	2.81238
19.28	2.80086
19.3	2.82093
19.32	2.80876
19.34	2.8132
19.36	2.81928
19.38	2.82044
19.4	2.81813
19.42	2.79872
19.44	2.80152
19.46	2.80613
19.48	2.80284
19.5	2.80481
19.52	2.80514
19.54	2.81386
19.56	2.81698
19.58	2.7979
19.6	2.81287
19.62	2.80843
19.64	2.79988
19.66	2.79757
19.68	2.80037
19.7	2.80086
19.72	2.81024
19.74	2.80168
19.76	2.81863
19.78	2.80382
19.8	2.81698
19.82	2.81501
19.84	2.81665
19.86	2.81435
19.88	2.82488
19.9	2.80892
19.92	2.80662
19.94	2.81649
19.96	2.81567
19.98	2.81369
20	2.80251
20.02	2.80119
20.04	2.80415
20.06	2.80695
20.08	2.80333
20.1	2.79988
20.12	2.79034
20.14	2.81336
20.16	2.79938
20.18	2.79543
20.2	2.79511
20.22	2.8155
20.24	2.79971
20.26	2.80086
20.28	2.80777
20.3	2.81698
20.32	2.81846
20.34	2.80678
20.36	2.79724
20.38	2.79774
20.4	2.79724
20.42	2.78244
20.44	2.80596
20.46	2.80152
20.48	2.79576
20.5	2.7984
20.52	2.8053
20.54	2.81978
20.56	2.80399
20.58	2.7905
20.6	2.79132
20.62	2.80152
20.64	2.80629
20.66	2.79807
20.68	2.79642
20.7	2.80645
20.72	2.80678
20.74	2.80119
20.76	2.80497
20.78	2.79774
20.8	2.81254
20.82	2.80563
20.84	2.80119
20.86	2.80218
20.88	2.79593
20.9	2.80317
20.92	2.79609
20.94	2.80004
20.96	2.80053
20.98	2.80711
21	2.80497
21.02	2.78606
21.04	2.80218
21.06	2.78968
21.08	2.79247
21.1	2.79823
21.12	2.80086
21.14	2.79593
21.16	2.79412
21.18	2.79922
21.2	2.80037
21.22	2.79708
21.24	2.78787
21.26	2.78655
21.28	2.79988
21.3	2.78935
21.32	2.79461
21.34	2.80317
21.36	2.78869
21.38	2.80168
21.4	2.80004
21.42	2.77751
21.44	2.79412
21.46	2.80119
21.48	2.78968
21.5	2.80514
21.52	2.78655
21.54	2.79461
21.56	2.79642
21.58	2.79132
21.6	2.79593
21.62	2.80613
21.64	2.77438
21.66	2.79099
21.68	2.8007
21.7	2.79198
21.72	2.79478
21.74	2.80086
21.76	2.79626
21.78	2.80037
21.8	2.79938
21.82	2.79478
21.84	2.79889
21.86	2.80004
21.88	2.79724
21.9	2.79955
21.92	2.78853
21.94	2.78639
21.96	2.77882
21.98	2.79198
22	2.79971
22.02	2.77833
22.04	2.78113
22.06	2.7877
22.08	2.80448
22.1	2.7928
22.12	2.77751
22.14	2.77932
22.16	2.78639
22.18	2.78359
22.2	2.79116
22.22	2.78409
22.24	2.7757
22.26	2.79856
22.28	2.79494
22.3	2.78244
22.32	2.80317
22.34	2.78409
22.36	2.77652
22.38	2.79149
22.4	2.78721
22.42	2.79149
22.44	2.78968
22.46	2.80366
22.48	2.77816
22.5	2.77619
22.52	2.7928
22.54	2.78573
22.56	2.79955
22.58	2.78392
22.6	2.79741
22.62	2.78853
22.64	2.78293
22.66	2.78392
22.68	2.79461
22.7	2.79099
22.72	2.77997
22.74	2.7854
22.76	2.77833
22.78	2.79198
22.8	2.7877
22.82	2.78589
22.84	2.78935
22.86	2.80448
22.88	2.78491
22.9	2.80086
22.92	2.77932
22.94	2.7752
22.96	2.78589
22.98	2.79116
23	2.80349
23.02	2.77356
23.04	2.778
23.06	2.78672
23.08	2.76764
23.1	2.79083
23.12	2.77767
23.14	2.79478
23.16	2.79149
23.18	2.7808
23.2	2.78162
23.22	2.77191
23.24	2.78441
23.26	2.78507
23.28	2.78277
23.3	2.78145
23.32	2.77636
23.34	2.79297
23.36	2.78474
23.38	2.79395
23.4	2.77833
23.42	2.79017
23.44	2.78244
23.46	2.77487
23.48	2.78047
23.5	2.78474
23.52	2.77389
23.54	2.79461
23.56	2.77751
23.58	2.77816
23.6	2.77652
23.62	2.78014
23.64	2.77668
23.66	2.77997
23.68	2.80744
23.7	2.7803
23.72	2.78557
23.74	2.78458
23.76	2.77438
23.78	2.78639
23.8	2.77734
23.82	2.78441
23.84	2.7683
23.86	2.77586
23.88	2.78409
23.9	2.78195
23.92	2.76764
23.94	2.78573
23.96	2.7678
23.98	2.78063
24	2.7854
24.02	2.78063
24.04	2.77422
24.06	2.78293
24.08	2.78968
24.1	2.77553
24.12	2.77849
24.14	2.79066
24.16	2.78343
24.18	2.78524
24.2	2.78672
24.22	2.76895
24.24	2.77586
24.26	2.76978
24.28	2.7928
24.3	2.77027
24.32	2.77718
24.34	2.7877
24.36	2.78918
24.38	2.78688
24.4	2.77652
24.42	2.79001
24.44	2.77849
24.46	2.77964
24.48	2.77224
24.5	2.78672
24.52	2.78688
24.54	2.77685
24.56	2.76846
24.58	2.78951
24.6	2.7683
24.62	2.7729
24.64	2.78441
24.66	2.77142
24.68	2.77339
24.7	2.78113
24.72	2.77438
24.74	2.76418
24.76	2.77619
24.78	2.77093
24.8	2.77389
24.82	2.77767
24.84	2.7803
24.86	2.78129
24.88	2.77076
24.9	2.77389
24.92	2.77274
24.94	2.77504
24.96	2.78474
24.98	2.78244
25	2.7808
25.02	2.78836
25.04	2.77109
25.06	2.78047
25.08	2.78277
25.1	2.76287
25.12	2.76978
25.14	2.76862
25.16	2.77126
25.18	2.77142
25.2	2.77323
25.22	2.7831
25.24	2.77981
25.26	2.77932
25.28	2.78096
25.3	2.77981
25.32	2.78195
25.34	2.77882
25.36	2.78376
25.38	2.77323
25.4	2.78195
25.42	2.77964
25.44	2.78063
25.46	2.79165
25.48	2.77191
25.5	2.77372
25.52	2.76994
25.54	2.77487
25.56	2.77405
25.58	2.7831
25.6	2.78409
25.62	2.77372
25.64	2.78606
25.66	2.76994
25.68	2.76122
25.7	2.77405
25.72	2.76402
25.74	2.77126
25.76	2.76813
25.78	2.78293
25.8	2.76369
25.82	2.76402
25.84	2.77603
25.86	2.76813
25.88	2.76616
25.9	2.78376
25.92	2.76188
25.94	2.77816
25.96	2.78491
25.98	2.7706
26	2.78195
26.02	2.76846
26.04	2.77109
26.06	2.7655
26.08	2.76599
26.1	2.778
26.12	2.75925
26.14	2.7683
26.16	2.76501
26.18	2.75547
26.2	2.77767
26.22	2.78425
26.24	2.76089
26.26	2.7627
26.28	2.77224
26.3	2.75596
26.32	2.77109
26.34	2.75991
26.36	2.76057
26.38	2.76846
26.4	2.75514
26.42	2.77619
26.44	2.76961
26.46	2.7808
26.48	2.78063
26.5	2.77323
26.52	2.75316
26.54	2.77241
26.56	2.77553
26.58	2.76797
26.6	2.77422
26.62	2.77668
26.64	2.77208
26.66	2.77932
26.68	2.78359
26.7	2.77504
26.72	2.77619
26.74	2.77636
26.76	2.7752
26.78	2.77701
26.8	2.76928
26.82	2.75941
26.84	2.76205
26.86	2.77208
26.88	2.77784
26.9	2.76435
26.92	2.7757
26.94	2.76139
26.96	2.77422
26.98	2.76122
27	2.76764
27.02	2.77126
27.04	2.76978
27.06	2.76599
27.08	2.7752
27.1	2.78524
27.12	2.77668
27.14	2.77668
27.16	2.76682
27.18	2.77553
27.2	2.7558
27.22	2.75793
27.24	2.75218
27.26	2.76435
27.28	2.7655
27.3	2.75859
27.32	2.77767
27.34	2.76155
27.36	2.76287
27.38	2.76484
27.4	2.76928
27.42	2.75596
27.44	2.76747
27.46	2.7678
27.48	2.76912
27.5	2.76468
27.52	2.77191
27.54	2.76682
27.56	2.76484
27.58	2.75974
27.6	2.75876
27.62	2.77191
27.64	2.7627
27.66	2.76566
27.68	2.7678
27.7	2.76089
27.72	2.76912
27.74	2.76912
27.76	2.76237
27.78	2.77356
27.8	2.76682
27.82	2.76369
27.84	2.76122
27.86	2.75728
27.88	2.76879
27.9	2.77093
27.92	2.77866
27.94	2.76764
27.96	2.77109
27.98	2.76994
28	2.75843
28.02	2.75382
28.04	2.77866
28.06	2.78441
28.08	2.78672
28.1	2.78392
28.12	2.77307
28.14	2.76336
28.16	2.7706
28.18	2.77076
28.2	2.78277
28.22	2.76221
28.24	2.7706
28.26	2.77948
28.28	2.77307
28.3	2.76517
28.32	2.76945
28.34	2.7632
28.36	2.75941
28.38	2.75925
28.4	2.77487
28.42	2.7632
28.44	2.77307
28.46	2.75876
28.48	2.76649
28.5	2.7701
28.52	2.75399
28.54	2.75234
28.56	2.75826
28.58	2.76616
28.6	2.75777
28.62	2.75218
28.64	2.75431
28.66	2.76369
28.68	2.75431
28.7	2.76402
28.72	2.76254
28.74	2.75152
28.76	2.76583
28.78	2.76418
28.8	2.76534
28.82	2.75251
28.84	2.7604
28.86	2.74806
28.88	2.76336
28.9	2.75629
28.92	2.76106
28.94	2.76566
28.96	2.77339
28.98	2.77734
29	2.77339
29.02	2.75859
29.04	2.76484
29.06	2.75135
29.08	2.77652
29.1	2.75283
29.12	2.75547
29.14	2.77866
29.16	2.77224
29.18	2.77356
29.2	2.76566
29.22	2.75843
29.24	2.7706
29.26	2.76517
29.28	2.76024
29.3	2.76813
29.32	2.75547
29.34	2.75119
29.36	2.76303
29.38	2.76517
29.4	2.76139
29.42	2.76846
29.44	2.76303
29.46	2.76649
29.48	2.76912
29.5	2.76698
29.52	2.75925
29.54	2.73622
29.56	2.75925
29.58	2.75974
29.6	2.75908
29.62	2.77027
29.64	2.76369
29.66	2.76089
29.68	2.75793
29.7	2.76862
29.72	2.77734
29.74	2.75695
29.76	2.76336
29.78	2.75728
29.8	2.76846
29.82	2.75448
29.84	2.77405
29.86	2.76468
29.88	2.76353
29.9	2.76205
29.92	2.75662
29.94	2.75662
29.96	2.74658
29.98	2.75316
30	2.76599
