"BIO-KINE ASCII FILE"
"_COMMENT"	"MOS-500 Spectrometer"
"_COMMENT"	"Kinetics measurement"
"_COMMENT"	"Y Unit : Volt,  X Unit : s"
"_COMMENT"	"Excitation wavelength : 380 nm"
"_COMMENT"	"Fentes bandwidth =  1 nm"
"_COMMENT"	"HV= 750V"
"_COMMENT"	"Timebase  1 =  .01 s   3001 pts"
"_SFM"	"SFM-400 /S  Advanced mode"
"_SFM"	"Ratio : S1: 2.5, S2: 0, S3: 0, S4: 1"
"_SFM"	"Content : S1: , S2: , S3: , S4:"
"_SFM"	"Concentration : S1: , S2: , S3: , S4:"
"_SFM"	"Total volume : 209 µl  Flow : 3.5 mL/s"
"_SFM"	"Acquisition start :  10 ms before stop"
"_SFM"	"cuve=FC-15, s1=10 ml , s2=10 ml , s3=10 ml , s4=1.9 ml"
"_UNITX"	"s"
"_UNITY"	"Volt"
"_DELTAX"	0
"_DATA"
1e-300	7.11119
0.01	7.61844
0.02	7.77239
0.03	7.76318
0.04	7.7895
0.05	7.76976
0.06	7.77305
0.07	7.77272
0.08	7.79015
0.09	7.78292
0.1	7.78687
0.11	7.80792
0.12	7.79509
0.13	7.78687
0.14	7.79772
0.15	7.79969
0.16	7.78851
0.17	7.79279
0.18	7.79443
0.19	7.77765
0.2	7.77502
0.21	7.77469
0.22	7.79312
0.23	7.75232
0.24	7.76285
0.25	7.76581
0.26	7.74575
0.27	7.74476
0.28	7.74476
0.29	7.74246
0.3	7.75858
0.31	7.7464
0.32	7.73686
0.33	7.7214
0.34	7.72305
0.35	7.72996
0.36	7.71417
0.37	7.69871
0.38	7.71186
0.39	7.69542
0.4	7.6964
0.41	7.69213
0.42	7.68423
0.43	7.69673
0.44	7.68653
0.45	7.67107
0.46	7.66844
0.47	7.66515
0.48	7.64969
0.49	7.66219
0.5	7.64607
0.51	7.6589
0.52	7.64443
0.53	7.63916
0.54	7.62206
0.55	7.64344
0.56	7.62041
0.57	7.62601
0.58	7.60429
0.59	7.58982
0.6	7.59607
0.61	7.56877
0.62	7.59804
0.63	7.59673
0.64	7.58686
0.65	7.57864
0.66	7.56679
0.67	7.56614
0.68	7.55594
0.69	7.5589
0.7	7.55627
0.71	7.54245
0.72	7.53094
0.73	7.53061
0.74	7.52469
0.75	7.53225
0.76	7.50363
0.77	7.50824
0.78	7.50199
0.79	7.48817
0.8	7.5066
0.81	7.50035
0.82	7.48521
0.83	7.46975
0.84	7.46909
0.85	7.47995
0.86	7.45199
0.87	7.44179
0.88	7.42304
0.89	7.43357
0.9	7.42238
0.91	7.41087
0.92	7.42436
0.93	7.43751
0.94	7.40462
0.95	7.38817
0.96	7.40659
0.97	7.39409
0.98	7.39343
0.99	7.37304
1	7.36185
1.01	7.36613
1.02	7.3681
1.03	7.35133
1.04	7.34409
1.05	7.34475
1.06	7.34541
1.07	7.33784
1.08	7.30889
1.09	7.33159
1.1	7.33192
1.11	7.32205
1.12	7.29014
1.13	7.30363
1.14	7.30396
1.15	7.27764
1.16	7.27369
1.17	7.28027
1.18	7.28192
1.19	7.27205
1.2	7.27567
1.21	7.2681
1.22	7.26613
1.23	7.25922
1.24	7.22271
1.25	7.22336
1.26	7.23685
1.27	7.22994
1.28	7.21514
1.29	7.21185
1.3	7.20494
1.31	7.21119
1.32	7.19902
1.33	7.18027
1.34	7.17172
1.35	7.18817
1.36	7.17994
1.37	7.16547
1.38	7.16317
1.39	7.14935
1.4	7.14968
1.41	7.14836
1.42	7.13619
1.43	7.11941
1.44	7.13323
1.45	7.13323
1.46	7.11711
1.47	7.08783
1.48	7.10001
1.49	7.10889
1.5	7.09112
1.51	7.08422
1.52	7.07698
1.53	7.07632
1.54	7.07073
1.55	7.05625
1.56	7.04803
1.57	7.05593
1.58	7.05165
1.59	7.03454
1.6	7.03652
1.61	7.03093
1.62	7.03093
1.63	7.01349
1.64	7.02336
1.65	7.00823
1.66	7.00823
1.67	7.00066
1.68	7.00099
1.69	7.00033
1.7	6.99441
1.71	6.99606
1.72	6.98849
1.73	6.99342
1.74	6.97467
1.75	6.9648
1.76	6.95954
1.77	6.95855
1.78	6.97599
1.79	6.94638
1.8	6.91744
1.81	6.93224
1.82	6.94671
1.83	6.92599
1.84	6.92467
1.85	6.92171
1.86	6.91678
1.87	6.91349
1.88	6.89901
1.89	6.89079
1.9	6.89868
1.91	6.87961
1.92	6.88289
1.93	6.87829
1.94	6.86283
1.95	6.86316
1.96	6.86053
1.97	6.84572
1.98	6.83881
1.99	6.82763
2	6.84276
2.01	6.82697
2.02	6.81677
2.03	6.81052
2.04	6.80066
2.05	6.79901
2.06	6.80954
2.07	6.79046
2.08	6.78519
2.09	6.78059
2.1	6.77993
2.11	6.76447
2.12	6.76513
2.13	6.75954
2.14	6.74046
2.15	6.7375
2.16	6.73125
2.17	6.7296
2.18	6.725
2.19	6.71644
2.2	6.71546
2.21	6.69835
2.22	6.71611
2.23	6.70098
2.24	6.69276
2.25	6.68256
2.26	6.68092
2.27	6.65328
2.28	6.65756
2.29	6.65197
2.3	6.63848
2.31	6.64374
2.32	6.64506
2.33	6.63256
2.34	6.63684
2.35	6.62532
2.36	6.62302
2.37	6.61809
2.38	6.61118
2.39	6.61315
2.4	6.59341
2.41	6.58979
2.42	6.59045
2.43	6.58782
2.44	6.56479
2.45	6.56775
2.46	6.56414
2.47	6.56183
2.48	6.54703
2.49	6.54506
2.5	6.54374
2.51	6.56019
2.52	6.54571
2.53	6.53881
2.54	6.52565
2.55	6.52861
2.56	6.53091
2.57	6.53124
2.58	6.52828
2.59	6.50756
2.6	6.50657
2.61	6.5092
2.62	6.49933
2.63	6.49045
2.64	6.49144
2.65	6.47992
2.66	6.47861
2.67	6.47203
2.68	6.45854
2.69	6.4592
2.7	6.46446
2.71	6.45821
2.72	6.44308
2.73	6.43387
2.74	6.43782
2.75	6.43782
2.76	6.43157
2.77	6.41479
2.78	6.399
2.79	6.40328
2.8	6.39768
2.81	6.38814
2.82	6.37696
2.83	6.35624
2.84	6.37762
2.85	6.36512
2.86	6.35656
2.87	6.35459
2.88	6.36545
2.89	6.35525
2.9	6.32597
2.91	6.33387
2.92	6.34275
2.93	6.32466
2.94	6.32696
2.95	6.32137
2.96	6.30722
2.97	6.29077
2.98	6.29077
2.99	6.30689
3	6.29373
3.01	6.2809
3.02	6.27597
3.03	6.26709
3.04	6.27268
3.05	6.27827
3.06	6.26775
3.07	6.23814
3.08	6.23814
3.09	6.24965
3.1	6.23814
3.11	6.23222
3.12	6.22728
3.13	6.2184
3.14	6.22761
3.15	6.21478
3.16	6.21478
3.17	6.21149
3.18	6.20294
3.19	6.18945
3.2	6.20722
3.21	6.19867
3.22	6.17202
3.23	6.1684
3.24	6.16906
3.25	6.17366
3.26	6.17268
3.27	6.16281
3.28	6.17695
3.29	6.15623
3.3	6.14834
3.31	6.16018
3.32	6.13781
3.33	6.1434
3.34	6.12333
3.35	6.13518
3.36	6.11676
3.37	6.11873
3.38	6.1286
3.39	6.12399
3.4	6.11347
3.41	6.09603
3.42	6.09044
3.43	6.08518
3.44	6.09307
3.45	6.08156
3.46	6.07136
3.47	6.08024
3.48	6.07465
3.49	6.06083
3.5	6.05064
3.51	6.04899
3.52	6.07399
3.53	6.0559
3.54	6.04866
3.55	6.04899
3.56	6.04471
3.57	6.02465
3.58	6.02169
3.59	6.02827
3.6	6.0309
3.61	6.01609
3.62	6.00261
3.63	6.00195
3.64	5.98682
3.65	5.99471
3.66	6.00886
3.67	6.01412
3.68	5.98353
3.69	5.97497
3.7	5.97103
3.71	5.98057
3.72	5.94537
3.73	5.95984
3.74	5.95491
3.75	5.95063
3.76	5.948
3.77	5.94142
3.78	5.94241
3.79	5.93912
3.8	5.92892
3.81	5.9253
3.82	5.92629
3.83	5.92168
3.84	5.90195
3.85	5.89339
3.86	5.89175
3.87	5.90096
3.88	5.90458
3.89	5.90293
3.9	5.90392
3.91	5.87497
3.92	5.86017
3.93	5.87925
3.94	5.86609
3.95	5.86477
3.96	5.86938
3.97	5.86214
3.98	5.84208
3.99	5.84997
4	5.8401
4.01	5.8401
4.02	5.83385
4.03	5.83352
4.04	5.81773
4.05	5.8174
4.06	5.83254
4.07	5.8105
4.08	5.81905
4.09	5.81642
4.1	5.82398
4.11	5.79767
4.12	5.78319
4.13	5.78846
4.14	5.80096
4.15	5.78221
4.16	5.77135
4.17	5.75885
4.18	5.76313
4.19	5.76576
4.2	5.75918
4.21	5.74865
4.22	5.76313
4.23	5.75622
4.24	5.75523
4.25	5.74306
4.26	5.73549
4.27	5.74734
4.28	5.73352
4.29	5.72859
4.3	5.7322
4.31	5.70984
4.32	5.70293
4.33	5.71839
4.34	5.71674
4.35	5.70589
4.36	5.68582
4.37	5.69898
4.38	5.6901
4.39	5.69339
4.4	5.68451
4.41	5.67793
4.42	5.67826
4.43	5.68122
4.44	5.66674
4.45	5.66444
4.46	5.67201
4.47	5.64997
4.48	5.65358
4.49	5.63812
4.5	5.64832
4.51	5.64635
4.52	5.64174
4.53	5.64075
4.54	5.63549
4.55	5.63747
4.56	5.62266
4.57	5.61312
4.58	5.60556
4.59	5.62266
4.6	5.6049
4.61	5.59602
4.62	5.6026
4.63	5.59898
4.64	5.59141
4.65	5.59602
4.66	5.57825
4.67	5.56575
4.68	5.57825
4.69	5.58352
4.7	5.56674
4.71	5.57759
4.72	5.56773
4.73	5.55819
4.74	5.57003
4.75	5.55786
4.76	5.54766
4.77	5.53976
4.78	5.53911
4.79	5.54569
4.8	5.53023
4.81	5.53648
4.82	5.53351
4.83	5.51772
4.84	5.52496
4.85	5.51838
4.86	5.52299
4.87	5.50128
4.88	5.51279
4.89	5.50062
4.9	5.49371
4.91	5.50161
4.92	5.49733
4.93	5.48779
4.94	5.49404
4.95	5.47891
4.96	5.47989
4.97	5.472
4.98	5.45884
4.99	5.46378
5	5.47134
5.01	5.45851
5.02	5.45292
5.03	5.45884
5.04	5.45654
5.05	5.45128
5.06	5.44272
5.07	5.45654
5.08	5.42989
5.09	5.44075
5.1	5.43812
5.11	5.40851
5.12	5.4322
5.13	5.4266
5.14	5.41838
5.15	5.42956
5.16	5.42858
5.17	5.40391
5.18	5.39996
5.19	5.40292
5.2	5.40621
5.21	5.41213
5.22	5.39996
5.23	5.39437
5.24	5.39864
5.25	5.38022
5.26	5.38088
5.27	5.36608
5.28	5.38252
5.29	5.38976
5.3	5.37594
5.31	5.37923
5.32	5.36838
5.33	5.36575
5.34	5.36279
5.35	5.34469
5.36	5.35358
5.37	5.35456
5.38	5.3539
5.39	5.34206
5.4	5.33154
5.41	5.3243
5.42	5.3164
5.43	5.33219
5.44	5.32265
5.45	5.32002
5.46	5.32463
5.47	5.31838
5.48	5.31213
5.49	5.3164
5.5	5.30884
5.51	5.30719
5.52	5.30489
5.53	5.2891
5.54	5.28482
5.55	5.27495
5.56	5.28482
5.57	5.26903
5.58	5.27824
5.59	5.28088
5.6	5.27002
5.61	5.25982
5.62	5.27989
5.63	5.26509
5.64	5.26443
5.65	5.2687
5.66	5.26015
5.67	5.28186
5.68	5.2664
5.69	5.26245
5.7	5.2493
5.71	5.24732
5.72	5.24897
5.73	5.2437
5.74	5.24864
5.75	5.2368
5.76	5.22824
5.77	5.2289
5.78	5.2266
5.79	5.22594
5.8	5.21278
5.81	5.21179
5.82	5.22726
5.83	5.19304
5.84	5.20916
5.85	5.22364
5.86	5.21443
5.87	5.19469
5.88	5.19502
5.89	5.19831
5.9	5.18416
5.91	5.19206
5.92	5.19568
5.93	5.17429
5.94	5.17035
5.95	5.18646
5.96	5.18153
5.97	5.17462
5.98	5.14633
5.99	5.1516
6	5.15982
6.01	5.1641
6.02	5.15225
6.03	5.14008
6.04	5.13942
6.05	5.14567
6.06	5.14074
6.07	5.14666
6.08	5.14567
6.09	5.12199
6.1	5.14238
6.11	5.14995
6.12	5.14074
6.13	5.13581
6.14	5.1187
6.15	5.12594
6.16	5.13021
6.17	5.10817
6.18	5.11048
6.19	5.09896
6.2	5.11179
6.21	5.10784
6.22	5.11311
6.23	5.09929
6.24	5.07857
6.25	5.09205
6.26	5.0914
6.27	5.08219
6.28	5.08876
6.29	5.08613
6.3	5.08054
6.31	5.07626
6.32	5.0733
6.33	5.06508
6.34	5.0789
6.35	5.07199
6.36	5.06574
6.37	5.05718
6.38	5.06311
6.39	5.04732
6.4	5.07034
6.41	5.06212
6.42	5.05751
6.43	5.06311
6.44	5.05686
6.45	5.04929
6.46	5.04041
6.47	5.04501
6.48	5.05061
6.49	5.03975
6.5	5.01705
6.51	5.02791
6.52	5.0335
6.53	5.03975
6.54	5.02988
6.55	5.02955
6.56	5.03383
6.57	5.01968
6.58	5.03153
6.59	5.03218
6.6	5.04205
6.61	5.01475
6.62	5.01574
6.63	5.01968
6.64	5.02264
6.65	5.00883
6.66	5.00718
6.67	5.01639
6.68	5.00258
6.69	4.99896
6.7	5.0085
6.71	5.01278
6.72	4.99172
6.73	4.99402
6.74	4.98514
6.75	4.9858
6.76	4.9812
6.77	4.98449
6.78	4.96606
6.79	4.96047
6.8	4.97133
6.81	4.96277
6.82	4.96705
6.83	4.96113
6.84	4.94731
6.85	4.95981
6.86	4.95291
6.87	4.94698
6.88	4.95225
6.89	4.94731
6.9	4.93514
6.91	4.95258
6.92	4.95258
6.93	4.95389
6.94	4.94534
6.95	4.94896
6.96	4.94172
6.97	4.92429
6.98	4.9335
6.99	4.93383
7	4.90521
7.01	4.91968
7.02	4.92034
7.03	4.91672
7.04	4.89402
7.05	4.8983
7.06	4.90915
7.07	4.92067
7.08	4.90981
7.09	4.89632
7.1	4.89106
7.11	4.89764
7.12	4.90323
7.13	4.9006
7.14	4.88876
7.15	4.89271
7.16	4.88909
7.17	4.88251
7.18	4.87428
7.19	4.87922
7.2	4.87659
7.21	4.88086
7.22	4.86836
7.23	4.86277
7.24	4.86738
7.25	4.88251
7.26	4.87823
7.27	4.86145
7.28	4.87132
7.29	4.85718
7.3	4.85224
7.31	4.85948
7.32	4.86738
7.33	4.85455
7.34	4.85685
7.35	4.85685
7.36	4.83349
7.37	4.85192
7.38	4.83645
7.39	4.84665
7.4	4.84369
7.41	4.83053
7.42	4.82691
7.43	4.84928
7.44	4.83744
7.45	4.83218
7.46	4.8358
7.47	4.83711
7.48	4.84731
7.49	4.83547
7.5	4.82823
7.51	4.81902
7.52	4.81112
7.53	4.82461
7.54	4.83185
7.55	4.8256
7.56	4.83481
7.57	4.80816
7.58	4.81145
7.59	4.81441
7.6	4.81014
7.61	4.8029
7.62	4.79895
7.63	4.79764
7.64	4.79994
7.65	4.80553
7.66	4.80158
7.67	4.80191
7.68	4.77494
7.69	4.78579
7.7	4.78579
7.71	4.8029
7.72	4.77757
7.73	4.78612
7.74	4.77823
7.75	4.77823
7.76	4.78283
7.77	4.78579
7.78	4.77099
7.79	4.76343
7.8	4.78579
7.81	4.79073
7.82	4.78283
7.83	4.77329
7.84	4.77593
7.85	4.7756
7.86	4.76507
7.87	4.76573
7.88	4.7654
7.89	4.75849
7.9	4.75948
7.91	4.74599
7.92	4.75257
7.93	4.7575
7.94	4.75389
7.95	4.75915
7.96	4.75849
7.97	4.74073
7.98	4.7381
7.99	4.74599
8	4.73974
8.01	4.72494
8.02	4.74073
8.03	4.73842
8.04	4.7427
8.05	4.73941
8.06	4.74599
8.07	4.74961
8.08	4.73744
8.09	4.74468
8.1	4.73415
8.11	4.72263
8.12	4.72165
8.13	4.70948
8.14	4.71441
8.15	4.70388
8.16	4.70619
8.17	4.71935
8.18	4.72263
8.19	4.72527
8.2	4.70586
8.21	4.70619
8.22	4.71079
8.23	4.72658
8.24	4.72033
8.25	4.70652
8.26	4.69303
8.27	4.69763
8.28	4.70849
8.29	4.70191
8.3	4.69731
8.31	4.68875
8.32	4.69961
8.33	4.71112
8.34	4.69599
8.35	4.69961
8.36	4.68711
8.37	4.67165
8.38	4.67954
8.39	4.67625
8.4	4.68152
8.41	4.68415
8.42	4.68645
8.43	4.67362
8.44	4.66507
8.45	4.66408
8.46	4.67691
8.47	4.67461
8.48	4.67263
8.49	4.67033
8.5	4.67461
8.51	4.66901
8.52	4.66375
8.53	4.66671
8.54	4.65783
8.55	4.66309
8.56	4.6723
8.57	4.66671
8.58	4.66046
8.59	4.6654
8.6	4.65619
8.61	4.64007
8.62	4.64401
8.63	4.65487
8.64	4.64105
8.65	4.65191
8.66	4.64961
8.67	4.65158
8.68	4.63941
8.69	4.63283
8.7	4.63447
8.71	4.63711
8.72	4.63151
8.73	4.62757
8.74	4.63743
8.75	4.64237
8.76	4.63908
8.77	4.65059
8.78	4.64138
8.79	4.62822
8.8	4.62954
8.81	4.61145
8.82	4.61836
8.83	4.64369
8.84	4.6302
8.85	4.62
8.86	4.62197
8.87	4.62954
8.88	4.63513
8.89	4.62197
8.9	4.61539
8.91	4.6075
8.92	4.61605
8.93	4.6223
8.94	4.62132
8.95	4.61474
8.96	4.5973
8.97	4.61539
8.98	4.60882
8.99	4.59697
9	4.6075
9.01	4.61507
9.02	4.60553
9.03	4.59401
9.04	4.61342
9.05	4.61145
9.06	4.61507
9.07	4.62066
9.08	4.61441
9.09	4.5973
9.1	4.6052
9.11	4.60289
9.12	4.59697
9.13	4.59467
9.14	4.59993
9.15	4.59171
9.16	4.60421
9.17	4.59303
9.18	4.59072
9.19	4.58381
9.2	4.58579
9.21	4.59007
9.22	4.58349
9.23	4.58184
9.24	4.57691
9.25	4.59171
9.26	4.59105
9.27	4.57526
9.28	4.57395
9.29	4.5848
9.3	4.58546
9.31	4.5825
9.32	4.58381
9.33	4.57164
9.34	4.57987
9.35	4.56704
9.36	4.56572
9.37	4.58184
9.38	4.5723
9.39	4.56112
9.4	4.56177
9.41	4.57559
9.42	4.56408
9.43	4.56704
9.44	4.56342
9.45	4.56079
9.46	4.55717
9.47	4.55355
9.48	4.55651
9.49	4.57625
9.5	4.57493
9.51	4.56671
9.52	4.56243
9.53	4.56079
9.54	4.56375
9.55	4.55059
9.56	4.55125
9.57	4.56802
9.58	4.56605
9.59	4.56342
9.6	4.54631
9.61	4.54171
9.62	4.53414
9.63	4.54335
9.64	4.54171
9.65	4.53513
9.66	4.54006
9.67	4.54401
9.68	4.53644
9.69	4.54631
9.7	4.54697
9.71	4.54039
9.72	4.53743
9.73	4.52921
9.74	4.52526
9.75	4.52756
9.76	4.52493
9.77	4.52789
9.78	4.53842
9.79	4.52625
9.8	4.53085
9.81	4.52065
9.82	4.51243
9.83	4.51638
9.84	4.51243
9.85	4.50125
9.86	4.51144
9.87	4.5144
9.88	4.5075
9.89	4.50684
9.9	4.51309
9.91	4.51144
9.92	4.5075
9.93	4.50552
9.94	4.50289
9.95	4.48908
9.96	4.50914
9.97	4.5121
9.98	4.50289
9.99	4.50552
10	4.49796
10.01	4.48809
10.02	4.49072
10.03	4.495
10.04	4.495
10.05	4.51243
10.06	4.49368
10.07	4.49434
10.08	4.48809
10.09	4.49401
10.1	4.495
10.11	4.48677
10.12	4.47329
10.13	4.46967
10.14	4.48677
10.15	4.49763
10.16	4.5098
10.17	4.49236
10.18	4.50256
10.19	4.49796
10.2	4.48644
10.21	4.4848
10.22	4.47559
10.23	4.49138
10.24	4.49236
10.25	4.48842
10.26	4.47657
10.27	4.48381
10.28	4.48085
10.29	4.48315
10.3	4.48908
10.31	4.47888
10.32	4.47197
10.33	4.4825
10.34	4.47625
10.35	4.46638
10.36	4.48447
10.37	4.47855
10.38	4.47361
10.39	4.47723
10.4	4.48282
10.41	4.47197
10.42	4.46539
10.43	4.4769
10.44	4.48085
10.45	4.46638
10.46	4.4769
10.47	4.4723
10.48	4.46736
10.49	4.4746
10.5	4.47197
10.51	4.47263
10.52	4.47329
10.53	4.47296
10.54	4.46506
10.55	4.45914
10.56	4.46342
10.57	4.46309
10.58	4.46243
10.59	4.46276
10.6	4.45881
10.61	4.45651
10.62	4.45684
10.63	4.4644
10.64	4.45651
10.65	4.44763
10.66	4.45486
10.67	4.45421
10.68	4.45124
10.69	4.45914
10.7	4.45717
10.71	4.44467
10.72	4.45848
10.73	4.45256
10.74	4.44072
10.75	4.45388
10.76	4.44697
10.77	4.45618
10.78	4.44894
10.79	4.44631
10.8	4.44796
10.81	4.44368
10.82	4.44664
10.83	4.43907
10.84	4.43414
10.85	4.44598
10.86	4.44532
10.87	4.43447
10.88	4.44236
10.89	4.43085
10.9	4.43315
10.91	4.45026
10.92	4.45289
10.93	4.43217
10.94	4.43677
10.95	4.43249
10.96	4.43611
10.97	4.43184
10.98	4.43611
10.99	4.4144
11	4.42493
11.01	4.42427
11.02	4.43348
11.03	4.42032
11.04	4.42164
11.05	4.42427
11.06	4.41999
11.07	4.42855
11.08	4.42427
11.09	4.41407
11.1	4.41868
11.11	4.41243
11.12	4.41539
11.13	4.41177
11.14	4.41605
11.15	4.42361
11.16	4.42624
11.17	4.42361
11.18	4.41539
11.19	4.41013
11.2	4.40124
11.21	4.41605
11.22	4.41473
11.23	4.40486
11.24	4.40749
11.25	4.40453
11.26	4.40585
11.27	4.4167
11.28	4.40914
11.29	4.40289
11.3	4.40881
11.31	4.41341
11.32	4.41013
11.33	4.4098
11.34	4.40881
11.35	4.40157
11.36	4.41078
11.37	4.40486
11.38	4.37855
11.39	4.39927
11.4	4.41013
11.41	4.43184
11.42	4.4121
11.43	4.41769
11.44	4.41835
11.45	4.41144
11.46	4.40651
11.47	4.39532
11.48	4.39006
11.49	4.40091
11.5	4.40453
11.51	4.40716
11.52	4.40223
11.53	4.41769
11.54	4.41276
11.55	4.39335
11.56	4.39203
11.57	4.39236
11.58	4.39039
11.59	4.40618
11.6	4.40585
11.61	4.42098
11.62	4.40815
11.63	4.40651
11.64	4.40651
11.65	4.41111
11.66	4.40289
11.67	4.39466
11.68	4.39434
11.69	4.40453
11.7	4.41999
11.71	4.39335
11.72	4.39072
11.73	4.39006
11.74	4.37855
11.75	4.3973
11.76	4.39532
11.77	4.39302
11.78	4.3917
11.79	4.38019
11.8	4.39466
11.81	4.38578
11.82	4.38183
11.83	4.37953
11.84	4.38841
11.85	4.3792
11.86	4.37526
11.87	4.37887
11.88	4.38151
11.89	4.37098
11.9	4.37558
11.91	4.36966
11.92	4.38414
11.93	4.37855
11.94	4.37197
11.95	4.36572
11.96	4.35453
11.97	4.37558
11.98	4.38019
11.99	4.3542
12	4.36933
12.01	4.36933
12.02	4.37558
12.03	4.37131
12.04	4.36243
12.05	4.37657
12.06	4.36177
12.07	4.36407
12.08	4.37065
12.09	4.34762
12.1	4.35782
12.11	4.35322
12.12	4.36572
12.13	4.36966
12.14	4.38216
12.15	4.37361
12.16	4.36144
12.17	4.36637
12.18	4.37164
12.19	4.36539
12.2	4.36703
12.21	4.36736
12.22	4.36473
12.23	4.36276
12.24	4.35552
12.25	4.35947
12.26	4.36111
12.27	4.35881
12.28	4.36012
12.29	4.35387
12.3	4.36341
12.31	4.36341
12.32	4.35519
12.33	4.36177
12.34	4.36341
12.35	4.36308
12.36	4.34565
12.37	4.36111
12.38	4.35058
12.39	4.35618
12.4	4.36769
12.41	4.35651
12.42	4.36407
12.43	4.37295
12.44	4.36506
12.45	4.3542
12.46	4.34927
12.47	4.35223
12.48	4.35881
12.49	4.35025
12.5	4.35058
12.51	4.36111
12.52	4.35618
12.53	4.35914
12.54	4.35749
12.55	4.33907
12.56	4.34269
12.57	4.34499
12.58	4.35124
12.59	4.34664
12.6	4.34137
12.61	4.34203
12.62	4.33545
12.63	4.3394
12.64	4.34006
12.65	4.33381
12.66	4.34894
12.67	4.34499
12.68	4.35453
12.69	4.34368
12.7	4.34894
12.71	4.34927
12.72	4.34039
12.73	4.35387
12.74	4.36276
12.75	4.35683
12.76	4.35058
12.77	4.35124
12.78	4.34269
12.79	4.34795
12.8	4.3496
12.81	4.34433
12.82	4.344
12.83	4.33249
12.84	4.35091
12.85	4.34828
12.86	4.33216
12.87	4.33315
12.88	4.33775
12.89	4.35025
12.9	4.33743
12.91	4.3417
12.92	4.33775
12.93	4.3269
12.94	4.35025
12.95	4.33775
12.96	4.32887
12.97	4.34433
12.98	4.32558
12.99	4.33052
13	4.33677
13.01	4.33315
13.02	4.33381
13.03	4.33019
13.04	4.34598
13.05	4.33578
13.06	4.33611
13.07	4.3292
13.08	4.32164
13.09	4.32854
13.1	4.34039
13.11	4.32854
13.12	4.33841
13.13	4.33644
13.14	4.33381
13.15	4.32262
13.16	4.3269
13.17	4.32821
13.18	4.32887
13.19	4.32723
13.2	4.32756
13.21	4.33644
13.22	4.34072
13.23	4.34335
13.24	4.34532
13.25	4.32065
13.26	4.3315
13.27	4.33644
13.28	4.33644
13.29	4.34104
13.3	4.34269
13.31	4.34368
13.32	4.33118
13.33	4.32164
13.34	4.32394
13.35	4.32789
13.36	4.32427
13.37	4.33183
13.38	4.32986
13.39	4.32624
13.4	4.32756
13.41	4.33118
13.42	4.32986
13.43	4.32887
13.44	4.32756
13.45	4.32756
13.46	4.31078
13.47	4.33183
13.48	4.31933
13.49	4.319
13.5	4.31506
13.51	4.32196
13.52	4.31539
13.53	4.32525
13.54	4.32394
13.55	4.3167
13.56	4.30881
13.57	4.31802
13.58	4.31374
13.59	4.3167
13.6	4.3292
13.61	4.32427
13.62	4.31374
13.63	4.30025
13.64	4.30585
13.65	4.2917
13.66	4.30453
13.67	4.30288
13.68	4.31012
13.69	4.3019
13.7	4.30848
13.71	4.29236
13.72	4.31012
13.73	4.30519
13.74	4.29532
13.75	4.30585
13.76	4.30288
13.77	4.29433
13.78	4.28348
13.79	4.29236
13.8	4.30157
13.81	4.30157
13.82	4.29302
13.83	4.29795
13.84	4.28973
13.85	4.29433
13.86	4.28808
13.87	4.28907
13.88	4.29071
13.89	4.29236
13.9	4.3065
13.91	4.30321
13.92	4.29532
13.93	4.28644
13.94	4.3065
13.95	4.31374
13.96	4.29828
13.97	4.29071
13.98	4.30091
13.99	4.28907
14	4.29269
14.01	4.30321
14.02	4.29795
14.03	4.29532
14.04	4.28578
14.05	4.29598
14.06	4.31078
14.07	4.31111
14.08	4.30223
14.09	4.2917
14.1	4.29269
14.11	4.30256
14.12	4.30124
14.13	4.294
14.14	4.28084
14.15	4.27953
14.16	4.3065
14.17	4.28644
14.18	4.29335
14.19	4.29038
14.2	4.28973
14.21	4.29203
14.22	4.28249
14.23	4.28578
14.24	4.30617
14.25	4.28775
14.26	4.27591
14.27	4.30453
14.28	4.29927
14.29	4.29302
14.3	4.29038
14.31	4.28709
14.32	4.28348
14.33	4.28644
14.34	4.2894
14.35	4.29335
14.36	4.28973
14.37	4.29236
14.38	4.30354
14.39	4.30223
14.4	4.29433
14.41	4.29104
14.42	4.29302
14.43	4.29433
14.44	4.29367
14.45	4.29762
14.46	4.2815
14.47	4.29861
14.48	4.28611
14.49	4.29565
14.5	4.2917
14.51	4.28808
14.52	4.31407
14.53	4.29729
14.54	4.29861
14.55	4.30552
14.56	4.28775
14.57	4.28709
14.58	4.28677
14.59	4.29499
14.6	4.28742
14.61	4.28479
14.62	4.28742
14.63	4.28677
14.64	4.27887
14.65	4.27459
14.66	4.28381
14.67	4.28512
14.68	4.28117
14.69	4.28216
14.7	4.28907
14.71	4.29367
14.72	4.28282
14.73	4.27624
14.74	4.28413
14.75	4.27591
14.76	4.28578
14.77	4.27032
14.78	4.25683
14.79	4.27229
14.8	4.28973
14.81	4.29861
14.82	4.28052
14.83	4.28282
14.84	4.27032
14.85	4.27821
14.86	4.27624
14.87	4.28052
14.88	4.28249
14.89	4.26703
14.9	4.26834
14.91	4.27328
14.92	4.28742
14.93	4.27657
14.94	4.27163
14.95	4.2713
14.96	4.27953
14.97	4.27525
14.98	4.27558
14.99	4.27229
15	4.2769
15.01	4.27459
15.02	4.28578
15.03	4.27361
15.04	4.28742
15.05	4.27032
15.06	4.26834
15.07	4.27163
15.08	4.28117
15.09	4.29696
15.1	4.29203
15.11	4.28775
15.12	4.27525
15.13	4.27854
15.14	4.27854
15.15	4.27525
15.16	4.28084
15.17	4.269
15.18	4.26407
15.19	4.27821
15.2	4.28249
15.21	4.27525
15.22	4.2667
15.23	4.27229
15.24	4.26604
15.25	4.27459
15.26	4.28315
15.27	4.2769
15.28	4.2792
15.29	4.26341
15.3	4.26966
15.31	4.27163
15.32	4.25321
15.33	4.26144
15.34	4.27065
15.35	4.27624
15.36	4.2644
15.37	4.27196
15.38	4.27361
15.39	4.27492
15.4	4.2565
15.41	4.26242
15.42	4.26111
15.43	4.27986
15.44	4.27032
15.45	4.26407
15.46	4.27427
15.47	4.27163
15.48	4.26571
15.49	4.26834
15.5	4.26933
15.51	4.26571
15.52	4.26177
15.53	4.26045
15.54	4.27098
15.55	4.26144
15.56	4.2713
15.57	4.269
15.58	4.25815
15.59	4.25091
15.6	4.26769
15.61	4.26473
15.62	4.26012
15.63	4.2588
15.64	4.25354
15.65	4.2565
15.66	4.26637
15.67	4.26177
15.68	4.25091
15.69	4.25486
15.7	4.2644
15.71	4.25946
15.72	4.2588
15.73	4.26012
15.74	4.25848
15.75	4.27821
15.76	4.25387
15.77	4.25584
15.78	4.25617
15.79	4.26242
15.8	4.2565
15.81	4.2394
15.82	4.26242
15.83	4.2644
15.84	4.26144
15.85	4.25519
15.86	4.24663
15.87	4.25979
15.88	4.2565
15.89	4.26177
15.9	4.25815
15.91	4.2519
15.92	4.25683
15.93	4.26604
15.94	4.26933
15.95	4.26209
15.96	4.26769
15.97	4.2519
15.98	4.26209
15.99	4.27394
16	4.26078
16.01	4.26538
16.02	4.26571
16.03	4.25683
16.04	4.26407
16.05	4.26374
16.06	4.25617
16.07	4.26078
16.08	4.25288
16.09	4.27361
16.1	4.26078
16.11	4.24959
16.12	4.24861
16.13	4.25124
16.14	4.26538
16.15	4.27262
16.16	4.25552
16.17	4.25025
16.18	4.26045
16.19	4.25749
16.2	4.26177
16.21	4.25255
16.22	4.25453
16.23	4.25058
16.24	4.25946
16.25	4.25453
16.26	4.24203
16.27	4.24894
16.28	4.2542
16.29	4.25782
16.3	4.25091
16.31	4.24005
16.32	4.24729
16.33	4.25091
16.34	4.24565
16.35	4.24729
16.36	4.23973
16.37	4.2269
16.38	4.24301
16.39	4.25552
16.4	4.24926
16.41	4.24334
16.42	4.24926
16.43	4.26144
16.44	4.24959
16.45	4.26045
16.46	4.2644
16.47	4.2565
16.48	4.24565
16.49	4.23907
16.5	4.23841
16.51	4.24762
16.52	4.24269
16.53	4.24005
16.54	4.2394
16.55	4.24466
16.56	4.2269
16.57	4.23907
16.58	4.25946
16.59	4.2542
16.6	4.25749
16.61	4.26111
16.62	4.25716
16.63	4.26242
16.64	4.25552
16.65	4.24828
16.66	4.24532
16.67	4.25124
16.68	4.2565
16.69	4.25815
16.7	4.25519
16.71	4.24499
16.72	4.25058
16.73	4.25157
16.74	4.25749
16.75	4.25288
16.76	4.2463
16.77	4.24301
16.78	4.23611
16.79	4.24795
16.8	4.25683
16.81	4.24499
16.82	4.25321
16.83	4.23545
16.84	4.23545
16.85	4.25486
16.86	4.26242
16.87	4.24926
16.88	4.24959
16.89	4.22755
16.9	4.24795
16.91	4.25387
16.92	4.24301
16.93	4.23117
16.94	4.24499
16.95	4.24729
16.96	4.24532
16.97	4.2417
16.98	4.24269
16.99	4.24005
17	4.24861
17.01	4.24861
17.02	4.2463
17.03	4.22887
17.04	4.25157
17.05	4.24959
17.06	4.24203
17.07	4.24499
17.08	4.24696
17.09	4.24598
17.1	4.25486
17.11	4.2463
17.12	4.24466
17.13	4.23973
17.14	4.24532
17.15	4.24269
17.16	4.24992
17.17	4.25815
17.18	4.24894
17.19	4.24269
17.2	4.24992
17.21	4.244
17.22	4.23479
17.23	4.24236
17.24	4.2463
17.25	4.2394
17.26	4.24104
17.27	4.23578
17.28	4.24071
17.29	4.23841
17.3	4.24137
17.31	4.24038
17.32	4.24269
17.33	4.24926
17.34	4.23019
17.35	4.2338
17.36	4.23775
17.37	4.219
17.38	4.22887
17.39	4.23611
17.4	4.24762
17.41	4.2292
17.42	4.24137
17.43	4.24005
17.44	4.22262
17.45	4.23446
17.46	4.25058
17.47	4.23216
17.48	4.22854
17.49	4.23249
17.5	4.22854
17.51	4.23084
17.52	4.23512
17.53	4.22492
17.54	4.23084
17.55	4.2417
17.56	4.22788
17.57	4.23216
17.58	4.24137
17.59	4.24005
17.6	4.23644
17.61	4.23446
17.62	4.24532
17.63	4.24565
17.64	4.22755
17.65	4.23413
17.66	4.23282
17.67	4.23019
17.68	4.22755
17.69	4.23709
17.7	4.22229
17.71	4.23973
17.72	4.22426
17.73	4.22986
17.74	4.23479
17.75	4.24203
17.76	4.2292
17.77	4.23019
17.78	4.23479
17.79	4.23249
17.8	4.25255
17.81	4.24301
17.82	4.24762
17.83	4.22624
17.84	4.23545
17.85	4.23117
17.86	4.22624
17.87	4.23347
17.88	4.23315
17.89	4.23578
17.9	4.23347
17.91	4.244
17.92	4.24433
17.93	4.2394
17.94	4.23676
17.95	4.24203
17.96	4.24269
17.97	4.23545
17.98	4.22624
17.99	4.2417
18	4.24696
18.01	4.24367
18.02	4.25683
18.03	4.23315
18.04	4.23775
18.05	4.22426
18.06	4.23117
18.07	4.23446
18.08	4.23084
18.09	4.23611
18.1	4.22426
18.11	4.22887
18.12	4.21703
18.13	4.21571
18.14	4.24038
18.15	4.22558
18.16	4.22459
18.17	4.22361
18.18	4.23249
18.19	4.22525
18.2	4.2417
18.21	4.23874
18.22	4.23084
18.23	4.23644
18.24	4.23216
18.25	4.22722
18.26	4.24137
18.27	4.23117
18.28	4.23841
18.29	4.23282
18.3	4.23347
18.31	4.21637
18.32	4.21801
18.33	4.22262
18.34	4.22755
18.35	4.21703
18.36	4.23216
18.37	4.22065
18.38	4.21538
18.39	4.22591
18.4	4.23611
18.41	4.23841
18.42	4.22722
18.43	4.22887
18.44	4.22755
18.45	4.23512
18.46	4.21637
18.47	4.21703
18.48	4.21505
18.49	4.20913
18.5	4.21571
18.51	4.21703
18.52	4.23249
18.53	4.21209
18.54	4.22722
18.55	4.21374
18.56	4.22986
18.57	4.22163
18.58	4.2167
18.59	4.22163
18.6	4.21472
18.61	4.2269
18.62	4.2213
18.63	4.22097
18.64	4.20749
18.65	4.21834
18.66	4.21604
18.67	4.22558
18.68	4.22953
18.69	4.21834
18.7	4.20946
18.71	4.20847
18.72	4.21275
18.73	4.21571
18.74	4.219
18.75	4.21768
18.76	4.2213
18.77	4.219
18.78	4.21834
18.79	4.22459
18.8	4.21538
18.81	4.22459
18.82	4.21999
18.83	4.21604
18.84	4.22657
18.85	4.22262
18.86	4.22986
18.87	4.21012
18.88	4.21341
18.89	4.21407
18.9	4.21472
18.91	4.21966
18.92	4.22163
18.93	4.23874
18.94	4.22262
18.95	4.21801
18.96	4.22459
18.97	4.23644
18.98	4.2269
18.99	4.21801
19	4.21078
19.01	4.22459
19.02	4.22163
19.03	4.23183
19.04	4.23183
19.05	4.22262
19.06	4.21867
19.07	4.21637
19.08	4.21472
19.09	4.2213
19.1	4.20847
19.11	4.20387
19.12	4.20946
19.13	4.21374
19.14	4.22755
19.15	4.22459
19.16	4.21867
19.17	4.21505
19.18	4.22229
19.19	4.2213
19.2	4.21505
19.21	4.20749
19.22	4.21143
19.23	4.21999
19.24	4.20584
19.25	4.21933
19.26	4.21472
19.27	4.19893
19.28	4.21341
19.29	4.21736
19.3	4.20815
19.31	4.2144
19.32	4.20782
19.33	4.20025
19.34	4.20321
19.35	4.21637
19.36	4.21834
19.37	4.219
19.38	4.21308
19.39	4.21604
19.4	4.23874
19.41	4.2292
19.42	4.20518
19.43	4.2088
19.44	4.20815
19.45	4.20683
19.46	4.20486
19.47	4.21801
19.48	4.22361
19.49	4.22065
19.5	4.22591
19.51	4.22525
19.52	4.22722
19.53	4.22295
19.54	4.22196
19.55	4.22163
19.56	4.21045
19.57	4.20979
19.58	4.21999
19.59	4.20979
19.6	4.22328
19.61	4.21472
19.62	4.20288
19.63	4.23084
19.64	4.22591
19.65	4.21308
19.66	4.20716
19.67	4.22262
19.68	4.2213
19.69	4.2167
19.7	4.21999
19.71	4.22624
19.72	4.20551
19.73	4.19301
19.74	4.20387
19.75	4.21538
19.76	4.22525
19.77	4.21111
19.78	4.21045
19.79	4.21768
19.8	4.21143
19.81	4.20913
19.82	4.21111
19.83	4.21143
19.84	4.21538
19.85	4.20124
19.86	4.19532
19.87	4.21933
19.88	4.21012
19.89	4.20617
19.9	4.21505
19.91	4.21242
19.92	4.20058
19.93	4.21308
19.94	4.22426
19.95	4.21637
19.96	4.20354
19.97	4.20453
19.98	4.20847
19.99	4.20782
20	4.21242
20.01	4.21111
20.02	4.21176
20.03	4.20189
20.04	4.20354
20.05	4.20913
20.06	4.2144
20.07	4.21078
20.08	4.21078
20.09	4.20913
20.1	4.20815
20.11	4.21111
20.12	4.20157
20.13	4.21933
20.14	4.20847
20.15	4.21637
20.16	4.22492
20.17	4.20913
20.18	4.20288
20.19	4.20321
20.2	4.21407
20.21	4.21867
20.22	4.2167
20.23	4.19762
20.24	4.21012
20.25	4.21341
20.26	4.22558
20.27	4.20387
20.28	4.21867
20.29	4.21275
20.3	4.2088
20.31	4.21703
20.32	4.21308
20.33	4.20058
20.34	4.19466
20.35	4.21275
20.36	4.22032
20.37	4.2042
20.38	4.21176
20.39	4.20189
20.4	4.21209
20.41	4.21637
20.42	4.20354
20.43	4.20518
20.44	4.21374
20.45	4.20946
20.46	4.21078
20.47	4.22163
20.48	4.22394
20.49	4.22032
20.5	4.20815
20.51	4.20716
20.52	4.19992
20.53	4.20683
20.54	4.21308
20.55	4.21341
20.56	4.20321
20.57	4.17953
20.58	4.18775
20.59	4.20979
20.6	4.20584
20.61	4.20124
20.62	4.19499
20.63	4.20288
20.64	4.21768
20.65	4.19893
20.66	4.20913
20.67	4.19268
20.68	4.18117
20.69	4.19564
20.7	4.20486
20.71	4.20222
20.72	4.20683
20.73	4.20551
20.74	4.19466
20.75	4.20222
20.76	4.20617
20.77	4.2088
20.78	4.19532
20.79	4.19926
20.8	4.19663
20.81	4.19893
20.82	4.21933
20.83	4.20913
20.84	4.20913
20.85	4.20551
20.86	4.194
20.87	4.21176
20.88	4.20551
20.89	4.20321
20.9	4.18907
20.91	4.18808
20.92	4.18413
20.93	4.19564
20.94	4.19663
20.95	4.19861
20.96	4.18972
20.97	4.2065
20.98	4.20321
20.99	4.20913
21	4.20025
21.01	4.20157
21.02	4.20091
21.03	4.17854
21.04	4.18841
21.05	4.20321
21.06	4.20189
21.07	4.21341
21.08	4.20387
21.09	4.20124
21.1	4.19926
21.11	4.18775
21.12	4.19104
21.13	4.18775
21.14	4.19301
21.15	4.19499
21.16	4.19433
21.17	4.20157
21.18	4.2065
21.19	4.21604
21.2	4.20288
21.21	4.19597
21.22	4.20091
21.23	4.20124
21.24	4.19762
21.25	4.20157
21.26	4.19729
21.27	4.20157
21.28	4.19597
21.29	4.20124
21.3	4.19663
21.31	4.20551
21.32	4.2065
21.33	4.20091
21.34	4.19071
21.35	4.19038
21.36	4.20749
21.37	4.2088
21.38	4.20025
21.39	4.18775
21.4	4.19137
21.41	4.19893
21.42	4.19564
21.43	4.19861
21.44	4.19137
21.45	4.19433
21.46	4.19861
21.47	4.20815
21.48	4.21242
21.49	4.20157
21.5	4.19959
21.51	4.19071
21.52	4.19334
21.53	4.18939
21.54	4.194
21.55	4.20288
21.56	4.19433
21.57	4.19959
21.58	4.19071
21.59	4.2042
21.6	4.19532
21.61	4.18709
21.62	4.19992
21.63	4.20518
21.64	4.20025
21.65	4.19137
21.66	4.19893
21.67	4.19663
21.68	4.19268
21.69	4.19532
21.7	4.20551
21.71	4.18841
21.72	4.19038
21.73	4.18413
21.74	4.1963
21.75	4.20321
21.76	4.194
21.77	4.19992
21.78	4.19301
21.79	4.18446
21.8	4.19597
21.81	4.19367
21.82	4.18775
21.83	4.1838
21.84	4.20091
21.85	4.1838
21.86	4.19203
21.87	4.18939
21.88	4.19203
21.89	4.20782
21.9	4.20486
21.91	4.18972
21.92	4.18808
21.93	4.20091
21.94	4.19696
21.95	4.19005
21.96	4.19334
21.97	4.19926
21.98	4.19236
21.99	4.19268
22	4.19367
22.01	4.20288
22.02	4.19663
22.03	4.19203
22.04	4.19367
22.05	4.20222
22.06	4.2065
22.07	4.19203
22.08	4.19038
22.09	4.20189
22.1	4.18216
22.11	4.18446
22.12	4.18282
22.13	4.18775
22.14	4.18742
22.15	4.18808
22.16	4.19071
22.17	4.1917
22.18	4.19466
22.19	4.19532
22.2	4.18051
22.21	4.1667
22.22	4.17788
22.23	4.18907
22.24	4.18972
22.25	4.18249
22.26	4.18314
22.27	4.18709
22.28	4.18249
22.29	4.19663
22.3	4.18742
22.31	4.17196
22.32	4.18084
22.33	4.1917
22.34	4.18413
22.35	4.18808
22.36	4.20716
22.37	4.18841
22.38	4.18841
22.39	4.19433
22.4	4.18808
22.41	4.18183
22.42	4.18742
22.43	4.19597
22.44	4.20551
22.45	4.20518
22.46	4.19499
22.47	4.17755
22.48	4.18676
22.49	4.19564
22.5	4.18874
22.51	4.18939
22.52	4.18907
22.53	4.19466
22.54	4.19893
22.55	4.19663
22.56	4.1736
22.57	4.19071
22.58	4.2042
22.59	4.19137
22.6	4.19762
22.61	4.19203
22.62	4.17887
22.63	4.18676
22.64	4.18874
22.65	4.18578
22.66	4.19137
22.67	4.19926
22.68	4.18907
22.69	4.18907
22.7	4.19268
22.71	4.19564
22.72	4.1861
22.73	4.18742
22.74	4.18249
22.75	4.18446
22.76	4.19071
22.77	4.18314
22.78	4.18249
22.79	4.18709
22.8	4.17821
22.81	4.19334
22.82	4.19926
22.83	4.20255
22.84	4.19038
22.85	4.17426
22.86	4.1917
22.87	4.19663
22.88	4.19137
22.89	4.18249
22.9	4.18841
22.91	4.18314
22.92	4.19203
22.93	4.19893
22.94	4.19663
22.95	4.19301
22.96	4.20387
22.97	4.18676
22.98	4.17821
22.99	4.18643
23	4.17295
23.01	4.18084
23.02	4.17887
23.03	4.17854
23.04	4.18183
23.05	4.17558
23.06	4.18512
23.07	4.18709
23.08	4.17426
23.09	4.1588
23.1	4.16472
23.11	4.18249
23.12	4.18051
23.13	4.1838
23.14	4.18578
23.15	4.17624
23.16	4.18808
23.17	4.18314
23.18	4.19005
23.19	4.17821
23.2	4.18446
23.21	4.19564
23.22	4.19005
23.23	4.20124
23.24	4.19334
23.25	4.18874
23.26	4.18545
23.27	4.18874
23.28	4.18676
23.29	4.18939
23.3	4.17953
23.31	4.18314
23.32	4.18545
23.33	4.18018
23.34	4.19532
23.35	4.19893
23.36	4.19203
23.37	4.18051
23.38	4.194
23.39	4.1815
23.4	4.17328
23.41	4.18907
23.42	4.1838
23.43	4.18117
23.44	4.18216
23.45	4.1917
23.46	4.18545
23.47	4.18314
23.48	4.1838
23.49	4.17821
23.5	4.1815
23.51	4.17591
23.52	4.17097
23.53	4.18446
23.54	4.18347
23.55	4.17262
23.56	4.169
23.57	4.17624
23.58	4.18907
23.59	4.194
23.6	4.18347
23.61	4.18479
23.62	4.17591
23.63	4.1815
23.64	4.18183
23.65	4.18216
23.66	4.1838
23.67	4.17459
23.68	4.18907
23.69	4.1861
23.7	4.1713
23.71	4.19005
23.72	4.18183
23.73	4.17097
23.74	4.18446
23.75	4.18939
23.76	4.17854
23.77	4.1861
23.78	4.18479
23.79	4.18742
23.8	4.17657
23.81	4.18314
23.82	4.17525
23.83	4.17821
23.84	4.18117
23.85	4.18216
23.86	4.1736
23.87	4.18512
23.88	4.18183
23.89	4.17953
23.9	4.17525
23.91	4.18479
23.92	4.18907
23.93	4.17492
23.94	4.18051
23.95	4.17985
23.96	4.17459
23.97	4.18249
23.98	4.19532
23.99	4.19268
24	4.19038
24.01	4.17755
24.02	4.18808
24.03	4.18545
24.04	4.18117
24.05	4.17953
24.06	4.17854
24.07	4.1736
24.08	4.1713
24.09	4.1792
24.1	4.17624
24.11	4.16571
24.12	4.17064
24.13	4.17295
24.14	4.1792
24.15	4.17393
24.16	4.1736
24.17	4.16703
24.18	4.1736
24.19	4.17163
24.2	4.16045
24.21	4.16867
24.22	4.17525
24.23	4.18249
24.24	4.18282
24.25	4.1861
24.26	4.18084
24.27	4.19104
24.28	4.17426
24.29	4.18512
24.3	4.17262
24.31	4.18972
24.32	4.18874
24.33	4.194
24.34	4.17722
24.35	4.17295
24.36	4.17262
24.37	4.16999
24.38	4.18479
24.39	4.17558
24.4	4.18545
24.41	4.18479
24.42	4.18775
24.43	4.17953
24.44	4.17755
24.45	4.18413
24.46	4.20091
24.47	4.17985
24.48	4.17328
24.49	4.17459
24.5	4.1861
24.51	4.18413
24.52	4.17097
24.53	4.18578
24.54	4.17097
24.55	4.17525
24.56	4.1736
24.57	4.17097
24.58	4.17821
24.59	4.17558
24.6	4.17755
24.61	4.17821
24.62	4.16275
24.63	4.17459
24.64	4.18249
24.65	4.17657
24.66	4.15814
24.67	4.1713
24.68	4.1667
24.69	4.17755
24.7	4.17525
24.71	4.17031
24.72	4.17492
24.73	4.1736
24.74	4.17328
24.75	4.16768
24.76	4.17064
24.77	4.17492
24.78	4.17755
24.79	4.18512
24.8	4.17591
24.81	4.15584
24.82	4.16439
24.83	4.17755
24.84	4.1736
24.85	4.16374
24.86	4.1713
24.87	4.18051
24.88	4.16768
24.89	4.18249
24.9	4.1815
24.91	4.17558
24.92	4.17426
24.93	4.16966
24.94	4.18084
24.95	4.1667
24.96	4.17459
24.97	4.18808
24.98	4.17196
24.99	4.17459
25	4.18117
25.01	4.17064
25.02	4.16966
25.03	4.18709
25.04	4.18051
25.05	4.18249
25.06	4.17657
25.07	4.17031
25.08	4.16604
25.09	4.17624
25.1	4.18314
25.11	4.18314
25.12	4.1792
25.13	4.16703
25.14	4.169
25.15	4.17854
25.16	4.17295
25.17	4.18413
25.18	4.17953
25.19	4.16867
25.2	4.16999
25.21	4.17295
25.22	4.18479
25.23	4.18907
25.24	4.16999
25.25	4.18051
25.26	4.18742
25.27	4.18282
25.28	4.17657
25.29	4.17064
25.3	4.17624
25.31	4.1611
25.32	4.17985
25.33	4.17722
25.34	4.18216
25.35	4.17985
25.36	4.18117
25.37	4.16637
25.38	4.17262
25.39	4.18413
25.4	4.17788
25.41	4.17492
25.42	4.1736
25.43	4.16012
25.44	4.15452
25.45	4.17657
25.46	4.1736
25.47	4.17426
25.48	4.17492
25.49	4.17492
25.5	4.18084
25.51	4.169
25.52	4.17591
25.53	4.18018
25.54	4.17689
25.55	4.16439
25.56	4.16472
25.57	4.1736
25.58	4.16834
25.59	4.16735
25.6	4.16703
25.61	4.16143
25.62	4.17393
25.63	4.1713
25.64	4.1815
25.65	4.17985
25.66	4.16209
25.67	4.16406
25.68	4.16637
25.69	4.18051
25.7	4.18314
25.71	4.17393
25.72	4.16341
25.73	4.16867
25.74	4.17262
25.75	4.16571
25.76	4.17393
25.77	4.17788
25.78	4.17558
25.79	4.16966
25.8	4.16966
25.81	4.16703
25.82	4.16538
25.83	4.1736
25.84	4.15749
25.85	4.16703
25.86	4.1667
25.87	4.17196
25.88	4.17031
25.89	4.16933
25.9	4.16933
25.91	4.16966
25.92	4.15288
25.93	4.16275
25.94	4.17525
25.95	4.17196
25.96	4.17854
25.97	4.17459
25.98	4.16176
25.99	4.16012
26	4.16604
26.01	4.15913
26.02	4.16045
26.03	4.17591
26.04	4.16735
26.05	4.16834
26.06	4.17097
26.07	4.17788
26.08	4.17426
26.09	4.1588
26.1	4.16571
26.11	4.16538
26.12	4.17821
26.13	4.17262
26.14	4.16505
26.15	4.16933
26.16	4.16571
26.17	4.16374
26.18	4.17229
26.19	4.15617
26.2	4.17788
26.21	4.17788
26.22	4.17887
26.23	4.17821
26.24	4.16078
26.25	4.1667
26.26	4.16768
26.27	4.15288
26.28	4.16374
26.29	4.169
26.3	4.169
26.31	4.1542
26.32	4.16867
26.33	4.17229
26.34	4.16012
26.35	4.16439
26.36	4.16604
26.37	4.16242
26.38	4.17097
26.39	4.1713
26.4	4.18018
26.41	4.17755
26.42	4.17459
26.43	4.16735
26.44	4.17262
26.45	4.16768
26.46	4.17657
26.47	4.17097
26.48	4.16242
26.49	4.16045
26.5	4.18084
26.51	4.17755
26.52	4.16472
26.53	4.16374
26.54	4.1713
26.55	4.17492
26.56	4.17591
26.57	4.16966
26.58	4.16867
26.59	4.17426
26.6	4.16538
26.61	4.16571
26.62	4.17295
26.63	4.16999
26.64	4.15058
26.65	4.1667
26.66	4.16143
26.67	4.17591
26.68	4.16703
26.69	4.16209
26.7	4.16834
26.71	4.16801
26.72	4.16472
26.73	4.17196
26.74	4.16966
26.75	4.16439
26.76	4.16176
26.77	4.16374
26.78	4.16505
26.79	4.17755
26.8	4.15814
26.81	4.16966
26.82	4.16571
26.83	4.14729
26.84	4.16012
26.85	4.15255
26.86	4.15156
26.87	4.15485
26.88	4.15979
26.89	4.15814
26.9	4.17788
26.91	4.16933
26.92	4.16176
26.93	4.16143
26.94	4.16703
26.95	4.15716
26.96	4.15584
26.97	4.16045
26.98	4.17262
26.99	4.16143
27	4.15683
27.01	4.1611
27.02	4.15979
27.03	4.1588
27.04	4.15847
27.05	4.17097
27.06	4.16472
27.07	4.16242
27.08	4.17064
27.09	4.16801
27.1	4.16538
27.11	4.16538
27.12	4.17064
27.13	4.16505
27.14	4.16012
27.15	4.14992
27.16	4.17064
27.17	4.16538
27.18	4.14531
27.19	4.15189
27.2	4.15716
27.21	4.15189
27.22	4.16045
27.23	4.17262
27.24	4.15847
27.25	4.16209
27.26	4.16045
27.27	4.16176
27.28	4.16209
27.29	4.16505
27.3	4.15749
27.31	4.16242
27.32	4.15781
27.33	4.1713
27.34	4.16571
27.35	4.16045
27.36	4.17163
27.37	4.16505
27.38	4.15946
27.39	4.15387
27.4	4.15946
27.41	4.15847
27.42	4.16176
27.43	4.1588
27.44	4.16604
27.45	4.16341
27.46	4.17163
27.47	4.17163
27.48	4.14235
27.49	4.17854
27.5	4.17328
27.51	4.15979
27.52	4.16374
27.53	4.16768
27.54	4.17985
27.55	4.16374
27.56	4.16604
27.57	4.1736
27.58	4.16867
27.59	4.16308
27.6	4.15913
27.61	4.16341
27.62	4.15814
27.63	4.16143
27.64	4.15255
27.65	4.15946
27.66	4.15946
27.67	4.15716
27.68	4.15288
27.69	4.15979
27.7	4.16045
27.71	4.1667
27.72	4.1565
27.73	4.15452
27.74	4.16012
27.75	4.16341
27.76	4.16406
27.77	4.1588
27.78	4.16604
27.79	4.15189
27.8	4.16538
27.81	4.17262
27.82	4.16505
27.83	4.16308
27.84	4.17064
27.85	4.16735
27.86	4.16834
27.87	4.16834
27.88	4.16176
27.89	4.14762
27.9	4.15485
27.91	4.15847
27.92	4.16834
27.93	4.15946
27.94	4.15749
27.95	4.1588
27.96	4.15321
27.97	4.1463
27.98	4.15584
27.99	4.16143
28	4.15058
28.01	4.16308
28.02	4.1667
28.03	4.15814
28.04	4.15716
28.05	4.16143
28.06	4.16801
28.07	4.15847
28.08	4.15716
28.09	4.15749
28.1	4.16801
28.11	4.16735
28.12	4.15025
28.13	4.15781
28.14	4.16242
28.15	4.1542
28.16	4.15354
28.17	4.1667
28.18	4.17295
28.19	4.17097
28.2	4.16834
28.21	4.16406
28.22	4.1713
28.23	4.17031
28.24	4.17163
28.25	4.15979
28.26	4.16571
28.27	4.16439
28.28	4.16308
28.29	4.15683
28.3	4.16735
28.31	4.144
28.32	4.14795
28.33	4.15617
28.34	4.1565
28.35	4.15584
28.36	4.16012
28.37	4.15354
28.38	4.15156
28.39	4.1667
28.4	4.15617
28.41	4.14663
28.42	4.1588
28.43	4.16999
28.44	4.16275
28.45	4.1486
28.46	4.15288
28.47	4.1588
28.48	4.16604
28.49	4.1565
28.5	4.16176
28.51	4.17163
28.52	4.16242
28.53	4.16439
28.54	4.16012
28.55	4.16078
28.56	4.16242
28.57	4.15946
28.58	4.15814
28.59	4.15387
28.6	4.16505
28.61	4.16472
28.62	4.14499
28.63	4.15518
28.64	4.16078
28.65	4.16703
28.66	4.15946
28.67	4.16374
28.68	4.14762
28.69	4.1588
28.7	4.1565
28.71	4.15189
28.72	4.16341
28.73	4.15387
28.74	4.15913
28.75	4.16472
28.76	4.16275
28.77	4.17328
28.78	4.15617
28.79	4.14696
28.8	4.14071
28.81	4.15617
28.82	4.16209
28.83	4.16538
28.84	4.15156
28.85	4.1542
28.86	4.15617
28.87	4.15518
28.88	4.15551
28.89	4.14893
28.9	4.15222
28.91	4.14992
28.92	4.14992
28.93	4.15683
28.94	4.15749
28.95	4.14926
28.96	4.1565
28.97	4.15814
28.98	4.15091
28.99	4.14729
29	4.15749
29.01	4.15979
29.02	4.15452
29.03	4.15683
29.04	4.15387
29.05	4.15091
29.06	4.16012
29.07	4.15781
29.08	4.1542
29.09	4.16012
29.1	4.14301
29.11	4.14762
29.12	4.14038
29.13	4.15584
29.14	4.15847
29.15	4.15222
29.16	4.14564
29.17	4.15749
29.18	4.16933
29.19	4.15716
29.2	4.16143
29.21	4.15946
29.22	4.16505
29.23	4.16341
29.24	4.14827
29.25	4.14729
29.26	4.15321
29.27	4.15058
29.28	4.14729
29.29	4.15452
29.3	4.15321
29.31	4.15913
29.32	4.15913
29.33	4.16045
29.34	4.16703
29.35	4.15288
29.36	4.15091
29.37	4.14729
29.38	4.16275
29.39	4.1588
29.4	4.15485
29.41	4.1486
29.42	4.15584
29.43	4.15814
29.44	4.14268
29.45	4.15222
29.46	4.14367
29.47	4.14795
29.48	4.14433
29.49	4.15716
29.5	4.16078
29.51	4.16867
29.52	4.1486
29.53	4.14762
29.54	4.15255
29.55	4.14926
29.56	4.1565
29.57	4.16012
29.58	4.15749
29.59	4.15354
29.6	4.13972
29.61	4.14499
29.62	4.15814
29.63	4.14499
29.64	4.1486
29.65	4.15847
29.66	4.17624
29.67	4.15716
29.68	4.15485
29.69	4.16242
29.7	4.16176
29.71	4.15091
29.72	4.14367
29.73	4.14926
29.74	4.15781
29.75	4.15584
29.76	4.1611
29.77	4.1565
29.78	4.14663
29.79	4.14795
29.8	4.16308
29.81	4.15058
29.82	4.13775
29.83	4.14762
29.84	4.15255
29.85	4.14762
29.86	4.15387
29.87	4.14959
29.88	4.1486
29.89	4.15058
29.9	4.15124
29.91	4.16012
29.92	4.16933
29.93	4.15222
29.94	4.14367
29.95	4.14137
29.96	4.14499
29.97	4.14663
29.98	4.14499
29.99	4.15584
30	4.16867
