"BIO-KINE ASCII FILE"
"_COMMENT"	"MOS-500 Spectrometer"
"_COMMENT"	"Kinetics measurement"
"_COMMENT"	"Y Unit : Volt,  X Unit : s"
"_COMMENT"	"Excitation wavelength : 380 nm"
"_COMMENT"	"Fentes bandwidth =  1 nm"
"_COMMENT"	"HV= 750V"
"_COMMENT"	"Timebase  1 =  .01 s   3001 pts"
"_SFM"	"SFM-400 /S  Advanced mode"
"_SFM"	"Ratio : S1: 2.5, S2: 0, S3: 0, S4: 1"
"_SFM"	"Content : S1: , S2: , S3: , S4:"
"_SFM"	"Concentration : S1: , S2: , S3: , S4:"
"_SFM"	"Total volume : 209 µl  Flow : 3.5 mL/s"
"_SFM"	"Acquisition start :  10 ms before stop"
"_SFM"	"cuve=FC-15, s1=10 ml , s2=10 ml , s3=10 ml , s4=1.9 ml"
"_UNITX"	"s"
"_UNITY"	"Volt"
"_DELTAX"	0
"_DATA"
1e-300	7.08981
0.01	7.6214
0.02	7.75858
0.03	7.76285
0.04	7.75627
0.05	7.75825
0.06	7.76713
0.07	7.76483
0.08	7.76186
0.09	7.76713
0.1	7.77502
0.11	7.77305
0.12	7.7691
0.13	7.75496
0.14	7.75693
0.15	7.76844
0.16	7.76614
0.17	7.74904
0.18	7.77042
0.19	7.75035
0.2	7.75397
0.21	7.76088
0.22	7.7566
0.23	7.74706
0.24	7.74904
0.25	7.72535
0.26	7.72568
0.27	7.727
0.28	7.73489
0.29	7.72173
0.3	7.73357
0.31	7.72963
0.32	7.69805
0.33	7.70759
0.34	7.71351
0.35	7.68949
0.36	7.68851
0.37	7.68785
0.38	7.68193
0.39	7.66778
0.4	7.66647
0.41	7.6543
0.42	7.65397
0.43	7.66811
0.44	7.63587
0.45	7.61811
0.46	7.64147
0.47	7.64081
0.48	7.6339
0.49	7.62897
0.5	7.61844
0.51	7.61153
0.52	7.60462
0.53	7.61186
0.54	7.58752
0.55	7.59607
0.56	7.58522
0.57	7.55199
0.58	7.57107
0.59	7.56877
0.6	7.55265
0.61	7.54245
0.62	7.54508
0.63	7.55265
0.64	7.55364
0.65	7.53554
0.66	7.50857
0.67	7.51712
0.68	7.52765
0.69	7.51646
0.7	7.50199
0.71	7.49212
0.72	7.49607
0.73	7.52107
0.74	7.4987
0.75	7.4737
0.76	7.48225
0.77	7.47765
0.78	7.45824
0.79	7.44245
0.8	7.45988
0.81	7.44278
0.82	7.43357
0.83	7.43817
0.84	7.44015
0.85	7.44771
0.86	7.44903
0.87	7.43455
0.88	7.41613
0.89	7.40297
0.9	7.38751
0.91	7.40034
0.92	7.38751
0.93	7.39343
0.94	7.38653
0.95	7.39311
0.96	7.37205
0.97	7.35955
0.98	7.36218
0.99	7.33817
1	7.35593
1.01	7.35593
1.02	7.35264
1.03	7.32962
1.04	7.32896
1.05	7.3158
1.06	7.30791
1.07	7.30988
1.08	7.29771
1.09	7.28948
1.1	7.28521
1.11	7.28192
1.12	7.28784
1.13	7.27896
1.14	7.26021
1.15	7.25067
1.16	7.2579
1.17	7.2431
1.18	7.23652
1.19	7.24836
1.2	7.21744
1.21	7.21942
1.22	7.20692
1.23	7.21021
1.24	7.21152
1.25	7.21086
1.26	7.20264
1.27	7.20659
1.28	7.19014
1.29	7.17402
1.3	7.17863
1.31	7.16744
1.32	7.17303
1.33	7.14606
1.34	7.16349
1.35	7.14836
1.36	7.14639
1.37	7.13981
1.38	7.12172
1.39	7.11744
1.4	7.11678
1.41	7.11744
1.42	7.11349
1.43	7.08224
1.44	7.09639
1.45	7.10165
1.46	7.09047
1.47	7.07632
1.48	7.07336
1.49	7.06843
1.5	7.06547
1.51	7.05494
1.52	7.04639
1.53	7.04211
1.54	7.025
1.55	7.03027
1.56	7.02369
1.57	7.02566
1.58	7.025
1.59	6.99342
1.6	6.98783
1.61	6.99902
1.62	7.0181
1.63	6.99704
1.64	6.99277
1.65	6.97862
1.66	6.97106
1.67	6.98717
1.68	6.96579
1.69	6.95724
1.7	6.9398
1.71	6.93257
1.72	6.93487
1.73	6.93915
1.74	6.93487
1.75	6.92796
1.76	6.94408
1.77	6.925
1.78	6.91184
1.79	6.90757
1.8	6.91776
1.81	6.91283
1.82	6.89441
1.83	6.89441
1.84	6.89211
1.85	6.88224
1.86	6.87467
1.87	6.85263
1.88	6.86678
1.89	6.85329
1.9	6.86382
1.91	6.84901
1.92	6.83816
1.93	6.83881
1.94	6.83125
1.95	6.82533
1.96	6.80559
1.97	6.79934
1.98	6.79868
1.99	6.79737
2	6.79408
2.01	6.79276
2.02	6.78355
2.03	6.77697
2.04	6.77467
2.05	6.75756
2.06	6.75625
2.07	6.74539
2.08	6.74079
2.09	6.73026
2.1	6.73783
2.11	6.73026
2.12	6.72401
2.13	6.7069
2.14	6.7023
2.15	6.70361
2.16	6.69703
2.17	6.70065
2.18	6.7
2.19	6.67927
2.2	6.68388
2.21	6.6694
2.22	6.67631
2.23	6.6717
2.24	6.64868
2.25	6.65098
2.26	6.64802
2.27	6.63585
2.28	6.6319
2.29	6.6342
2.3	6.63651
2.31	6.63519
2.32	6.62203
2.33	6.60427
2.34	6.59276
2.35	6.58979
2.36	6.58223
2.37	6.58058
2.38	6.56578
2.39	6.57499
2.4	6.58157
2.41	6.59539
2.42	6.55657
2.43	6.56611
2.44	6.55887
2.45	6.56052
2.46	6.55493
2.47	6.53519
2.48	6.53617
2.49	6.52137
2.5	6.52795
2.51	6.52006
2.52	6.5069
2.53	6.49078
2.54	6.49209
2.55	6.48223
2.56	6.49834
2.57	6.49275
2.58	6.46512
2.59	6.47828
2.6	6.49078
2.61	6.47565
2.62	6.46413
2.63	6.47038
2.64	6.46479
2.65	6.45065
2.66	6.42926
2.67	6.45492
2.68	6.44604
2.69	6.43157
2.7	6.43551
2.71	6.43157
2.72	6.41841
2.73	6.42038
2.74	6.39834
2.75	6.38485
2.76	6.39966
2.77	6.39538
2.78	6.38847
2.79	6.39308
2.8	6.37828
2.81	6.37696
2.82	6.35689
2.83	6.3467
2.84	6.3615
2.85	6.3388
2.86	6.33683
2.87	6.33485
2.88	6.3286
2.89	6.32005
2.9	6.30196
2.91	6.31084
2.92	6.30426
2.93	6.29143
2.94	6.29571
2.95	6.30163
2.96	6.28222
2.97	6.2888
2.98	6.26051
2.99	6.27762
3	6.28058
3.01	6.26775
3.02	6.25722
3.03	6.25097
3.04	6.24768
3.05	6.24867
3.06	6.23847
3.07	6.23485
3.08	6.21807
3.09	6.22005
3.1	6.20952
3.11	6.21577
3.12	6.19801
3.13	6.20755
3.14	6.19406
3.15	6.19867
3.16	6.20261
3.17	6.18584
3.18	6.1763
3.19	6.16577
3.2	6.17103
3.21	6.17334
3.22	6.1559
3.23	6.16544
3.24	6.15656
3.25	6.1661
3.26	6.15031
3.27	6.14899
3.28	6.13057
3.29	6.12202
3.3	6.12728
3.31	6.11807
3.32	6.11708
3.33	6.12268
3.34	6.11412
3.35	6.10853
3.36	6.10919
3.37	6.09603
3.38	6.08386
3.39	6.07794
3.4	6.08419
3.41	6.08024
3.42	6.08057
3.43	6.06939
3.44	6.06083
3.45	6.0536
3.46	6.04767
3.47	6.05327
3.48	6.04932
3.49	6.04669
3.5	6.0355
3.51	6.01938
3.52	6.02267
3.53	6.01741
3.54	6.01708
3.55	6.00195
3.56	5.99076
3.57	6.00327
3.58	5.99899
3.59	6.01577
3.6	5.99833
3.61	5.97399
3.62	5.99603
3.63	5.98451
3.64	5.97695
3.65	5.97859
3.66	5.9559
3.67	5.96544
3.68	5.96708
3.69	5.96379
3.7	5.95557
3.71	5.95195
3.72	5.94636
3.73	5.95195
3.74	5.9355
3.75	5.92925
3.76	5.92333
3.77	5.91576
3.78	5.90359
3.79	5.92136
3.8	5.90491
3.81	5.91445
3.82	5.91149
3.83	5.90754
3.84	5.89603
3.85	5.88747
3.86	5.88155
3.87	5.87727
3.88	5.87267
3.89	5.88287
3.9	5.86543
3.91	5.83879
3.92	5.84866
3.93	5.86412
3.94	5.84931
3.95	5.84208
3.96	5.83484
3.97	5.84372
3.98	5.8299
3.99	5.82398
4	5.83122
4.01	5.82069
4.02	5.82497
4.03	5.8174
4.04	5.80359
4.05	5.79734
4.06	5.79372
4.07	5.79569
4.08	5.79471
4.09	5.78254
4.1	5.78286
4.11	5.77431
4.12	5.76214
4.13	5.7674
4.14	5.76675
4.15	5.77431
4.16	5.76181
4.17	5.76247
4.18	5.73714
4.19	5.73878
4.2	5.76378
4.21	5.75063
4.22	5.73484
4.23	5.71674
4.24	5.71411
4.25	5.71247
4.26	5.72201
4.27	5.71641
4.28	5.7174
4.29	5.71049
4.3	5.70589
4.31	5.70326
4.32	5.68648
4.33	5.6947
4.34	5.67957
4.35	5.66773
4.36	5.67003
4.37	5.6651
4.38	5.68385
4.39	5.66378
4.4	5.6651
4.41	5.66279
4.42	5.66049
4.43	5.65293
4.44	5.66444
4.45	5.64569
4.46	5.62793
4.47	5.62365
4.48	5.64043
4.49	5.63352
4.5	5.63089
4.51	5.62233
4.52	5.62496
4.53	5.62299
4.54	5.62924
4.55	5.61707
4.56	5.6072
4.57	5.597
4.58	5.61049
4.59	5.60292
4.6	5.59536
4.61	5.59338
4.62	5.58713
4.63	5.58385
4.64	5.57957
4.65	5.56904
4.66	5.58286
4.67	5.57036
4.68	5.55753
4.69	5.56411
4.7	5.54273
4.71	5.547
4.72	5.54338
4.73	5.52858
4.74	5.53746
4.75	5.5368
4.76	5.53121
4.77	5.53648
4.78	5.54305
4.79	5.52463
4.8	5.51871
4.81	5.52595
4.82	5.52036
4.83	5.50292
4.84	5.49996
4.85	5.50983
4.86	5.50226
4.87	5.49207
4.88	5.49667
4.89	5.49996
4.9	5.47726
4.91	5.48022
4.92	5.46641
4.93	5.46739
4.94	5.47101
4.95	5.46641
4.96	5.45621
4.97	5.47529
4.98	5.45522
4.99	5.45555
5	5.46049
5.01	5.45621
5.02	5.44568
5.03	5.44733
5.04	5.43318
5.05	5.42792
5.06	5.4243
5.07	5.4266
5.08	5.42496
5.09	5.41904
5.1	5.41345
5.11	5.40029
5.12	5.41443
5.13	5.42101
5.14	5.40029
5.15	5.4141
5.16	5.39996
5.17	5.40423
5.18	5.38483
5.19	5.38088
5.2	5.37233
5.21	5.38581
5.22	5.37397
5.23	5.3743
5.24	5.36147
5.25	5.36344
5.26	5.35851
5.27	5.35127
5.28	5.34996
5.29	5.34765
5.3	5.3414
5.31	5.34601
5.32	5.33515
5.33	5.34075
5.34	5.33779
5.35	5.33219
5.36	5.32265
5.37	5.32002
5.38	5.31575
5.39	5.32298
5.4	5.31772
5.41	5.30588
5.42	5.30818
5.43	5.30357
5.44	5.31081
5.45	5.29732
5.46	5.28482
5.47	5.29173
5.48	5.29305
5.49	5.28811
5.5	5.28285
5.51	5.27627
5.52	5.2766
5.53	5.26509
5.54	5.26541
5.55	5.26903
5.56	5.26673
5.57	5.27594
5.58	5.25785
5.59	5.25423
5.6	5.25489
5.61	5.24897
5.62	5.24666
5.63	5.2437
5.64	5.24469
5.65	5.23252
5.66	5.23581
5.67	5.23581
5.68	5.24732
5.69	5.23285
5.7	5.24008
5.71	5.22693
5.72	5.21476
5.73	5.22923
5.74	5.22133
5.75	5.20653
5.76	5.2141
5.77	5.22561
5.78	5.20127
5.79	5.1891
5.8	5.19239
5.81	5.196
5.82	5.19568
5.83	5.18943
5.84	5.18449
5.85	5.1835
5.86	5.19272
5.87	5.17627
5.88	5.16574
5.89	5.17824
5.9	5.16706
5.91	5.17232
5.92	5.16574
5.93	5.16311
5.94	5.15949
5.95	5.17429
5.96	5.15258
5.97	5.15883
5.98	5.15785
5.99	5.14863
6	5.1414
6.01	5.13613
6.02	5.13679
6.03	5.12956
6.04	5.12166
6.05	5.12429
6.06	5.12429
6.07	5.13087
6.08	5.12528
6.09	5.12232
6.1	5.12528
6.11	5.12561
6.12	5.1289
6.13	5.10784
6.14	5.09534
6.15	5.10455
6.16	5.09929
6.17	5.11771
6.18	5.09929
6.19	5.08811
6.2	5.09469
6.21	5.09403
6.22	5.09271
6.23	5.09107
6.24	5.08317
6.25	5.07495
6.26	5.07528
6.27	5.06508
6.28	5.06738
6.29	5.06343
6.3	5.0608
6.31	5.071
6.32	5.05982
6.33	5.07067
6.34	5.046
6.35	5.04139
6.36	5.04764
6.37	5.05422
6.38	5.04797
6.39	5.05258
6.4	5.04139
6.41	5.04205
6.42	5.03218
6.43	5.03942
6.44	5.03317
6.45	5.03745
6.46	5.04074
6.47	5.02133
6.48	5.02067
6.49	4.99896
6.5	5.02791
6.51	5.02528
6.52	5.01113
6.53	5.01738
6.54	5.00455
6.55	4.99764
6.56	5.0131
6.57	4.99797
6.58	4.98876
6.59	4.99271
6.6	5.00258
6.61	5.00258
6.62	4.98613
6.63	4.98745
6.64	4.98449
6.65	4.98152
6.66	4.9881
6.67	4.96968
6.68	4.97856
6.69	4.98547
6.7	4.96771
6.71	4.96902
6.72	4.97133
6.73	4.96442
6.74	4.95652
6.75	4.95718
6.76	4.96277
6.77	4.96705
6.78	4.95883
6.79	4.94698
6.8	4.94304
6.81	4.95488
6.82	4.94731
6.83	4.9279
6.84	4.92494
6.85	4.93679
6.86	4.94501
6.87	4.93383
6.88	4.93218
6.89	4.93087
6.9	4.90817
6.91	4.92692
6.92	4.90619
6.93	4.92363
6.94	4.91409
6.95	4.9233
6.96	4.90718
6.97	4.91376
6.98	4.91211
6.99	4.90718
7	4.88744
7.01	4.89468
7.02	4.90817
7.03	4.90652
7.04	4.89402
7.05	4.90093
7.06	4.88382
7.07	4.90685
7.08	4.89698
7.09	4.88021
7.1	4.88119
7.11	4.87955
7.12	4.88317
7.13	4.89205
7.14	4.8904
7.15	4.87231
7.16	4.87428
7.17	4.87231
7.18	4.87165
7.19	4.86902
7.2	4.8631
7.21	4.85488
7.22	4.8529
7.23	4.85685
7.24	4.86409
7.25	4.86376
7.26	4.86771
7.27	4.85784
7.28	4.8529
7.29	4.85126
7.3	4.83777
7.31	4.83613
7.32	4.83415
7.33	4.83974
7.34	4.83843
7.35	4.83481
7.36	4.84632
7.37	4.83547
7.38	4.83316
7.39	4.84073
7.4	4.8381
7.41	4.82231
7.42	4.82395
7.43	4.81902
7.44	4.81573
7.45	4.82066
7.46	4.82724
7.47	4.8279
7.48	4.81737
7.49	4.80257
7.5	4.80915
7.51	4.81803
7.52	4.81902
7.53	4.81014
7.54	4.8052
7.55	4.79731
7.56	4.80224
7.57	4.8006
7.58	4.80093
7.59	4.79073
7.6	4.80191
7.61	4.79106
7.62	4.79731
7.63	4.78711
7.64	4.78678
7.65	4.79369
7.66	4.77889
7.67	4.78283
7.68	4.77329
7.69	4.78218
7.7	4.78283
7.71	4.78777
7.72	4.76902
7.73	4.77889
7.74	4.78514
7.75	4.76704
7.76	4.76968
7.77	4.76474
7.78	4.7677
7.79	4.76803
7.8	4.75718
7.81	4.75158
7.82	4.76869
7.83	4.77494
7.84	4.76112
7.85	4.74007
7.86	4.75421
7.87	4.74171
7.88	4.75849
7.89	4.75553
7.9	4.7427
7.91	4.72757
7.92	4.74796
7.93	4.73119
7.94	4.73349
7.95	4.71704
7.96	4.73678
7.97	4.73645
7.98	4.73481
7.99	4.73152
8	4.72198
8.01	4.71671
8.02	4.71112
8.03	4.7131
8.04	4.73448
8.05	4.73185
8.06	4.72494
8.07	4.7131
8.08	4.7177
8.09	4.71211
8.1	4.71046
8.11	4.70323
8.12	4.69994
8.13	4.69796
8.14	4.69862
8.15	4.70783
8.16	4.69862
8.17	4.70553
8.18	4.70684
8.19	4.69369
8.2	4.69763
8.21	4.70125
8.22	4.69961
8.23	4.68711
8.24	4.67888
8.25	4.66178
8.26	4.68908
8.27	4.69467
8.28	4.69402
8.29	4.68711
8.3	4.68875
8.31	4.67132
8.32	4.68053
8.33	4.6825
8.34	4.67461
8.35	4.6825
8.36	4.68217
8.37	4.67066
8.38	4.67494
8.39	4.67198
8.4	4.66507
8.41	4.67855
8.42	4.6848
8.43	4.66901
8.44	4.66671
8.45	4.67296
8.46	4.67461
8.47	4.6654
8.48	4.66803
8.49	4.65882
8.5	4.65388
8.51	4.65553
8.52	4.63809
8.53	4.64237
8.54	4.64336
8.55	4.64796
8.56	4.65059
8.57	4.6473
8.58	4.65322
8.59	4.64369
8.6	4.63809
8.61	4.64007
8.62	4.62395
8.63	4.62559
8.64	4.62954
8.65	4.63875
8.66	4.63941
8.67	4.62987
8.68	4.63217
8.69	4.65388
8.7	4.64138
8.71	4.63415
8.72	4.61079
8.73	4.61638
8.74	4.6098
8.75	4.61276
8.76	4.60849
8.77	4.62822
8.78	4.61145
8.79	4.61013
8.8	4.61112
8.81	4.59796
8.82	4.61441
8.83	4.61539
8.84	4.60717
8.85	4.59335
8.86	4.61211
8.87	4.60158
8.88	4.60355
8.89	4.61145
8.9	4.60914
8.91	4.60454
8.92	4.61046
8.93	4.60224
8.94	4.59335
8.95	4.60421
8.96	4.61803
8.97	4.61474
8.98	4.60388
8.99	4.58974
9	4.58842
9.01	4.58941
9.02	4.58875
9.03	4.58941
9.04	4.57559
9.05	4.59007
9.06	4.59434
9.07	4.5848
9.08	4.58184
9.09	4.58809
9.1	4.58678
9.11	4.57197
9.12	4.58283
9.13	4.57789
9.14	4.57428
9.15	4.57033
9.16	4.56572
9.17	4.56572
9.18	4.58316
9.19	4.57362
9.2	4.57066
9.21	4.57822
9.22	4.57822
9.23	4.56013
9.24	4.55322
9.25	4.54598
9.26	4.55125
9.27	4.54566
9.28	4.56638
9.29	4.56868
9.3	4.56079
9.31	4.54434
9.32	4.56013
9.33	4.55059
9.34	4.55355
9.35	4.54664
9.36	4.55191
9.37	4.54401
9.38	4.54796
9.39	4.55618
9.4	4.5427
9.41	4.54039
9.42	4.52756
9.43	4.54796
9.44	4.53776
9.45	4.54039
9.46	4.5427
9.47	4.53579
9.48	4.5348
9.49	4.5427
9.5	4.54763
9.51	4.52954
9.52	4.52296
9.53	4.53316
9.54	4.53546
9.55	4.53513
9.56	4.52296
9.57	4.52592
9.58	4.52855
9.59	4.51835
9.6	4.52888
9.61	4.53776
9.62	4.52493
9.63	4.52888
9.64	4.52526
9.65	4.51506
9.66	4.51276
9.67	4.51375
9.68	4.5223
9.69	4.52789
9.7	4.52164
9.71	4.51605
9.72	4.52789
9.73	4.52362
9.74	4.50684
9.75	4.51144
9.76	4.5121
9.77	4.50881
9.78	4.50848
9.79	4.49631
9.8	4.50585
9.81	4.51473
9.82	4.50026
9.83	4.50289
9.84	4.51079
9.85	4.49763
9.86	4.50848
9.87	4.51276
9.88	4.50059
9.89	4.50454
9.9	4.49993
9.91	4.49039
9.92	4.49631
9.93	4.49796
9.94	4.49829
9.95	4.49894
9.96	4.50158
9.97	4.49105
9.98	4.48842
9.99	4.49401
10	4.48348
10.01	4.49467
10.02	4.48085
10.03	4.48875
10.04	4.49039
10.05	4.4848
10.06	4.48414
10.07	4.48085
10.08	4.48151
10.09	4.48677
10.1	4.48973
10.11	4.47131
10.12	4.48809
10.13	4.47822
10.14	4.47723
10.15	4.48085
10.16	4.49796
10.17	4.4894
10.18	4.45651
10.19	4.47032
10.2	4.47592
10.21	4.47361
10.22	4.45519
10.23	4.46703
10.24	4.47493
10.25	4.4644
10.26	4.46407
10.27	4.45355
10.28	4.4621
10.29	4.47
10.3	4.45585
10.31	4.45684
10.32	4.46506
10.33	4.45421
10.34	4.45914
10.35	4.45914
10.36	4.45815
10.37	4.45881
10.38	4.46901
10.39	4.45486
10.4	4.45421
10.41	4.43743
10.42	4.45355
10.43	4.46835
10.44	4.46572
10.45	4.44171
10.46	4.44697
10.47	4.45947
10.48	4.4575
10.49	4.45355
10.5	4.45388
10.51	4.45585
10.52	4.44269
10.53	4.44105
10.54	4.4394
10.55	4.44631
10.56	4.44664
10.57	4.44006
10.58	4.44269
10.59	4.44467
10.6	4.43545
10.61	4.42197
10.62	4.44039
10.63	4.44434
10.64	4.45157
10.65	4.4371
10.66	4.43282
10.67	4.42328
10.68	4.43644
10.69	4.45289
10.7	4.43644
10.71	4.42855
10.72	4.42986
10.73	4.43776
10.74	4.43249
10.75	4.43282
10.76	4.43644
10.77	4.43677
10.78	4.42657
10.79	4.44072
10.8	4.43447
10.81	4.43545
10.82	4.43019
10.83	4.42197
10.84	4.43381
10.85	4.42855
10.86	4.42657
10.87	4.43578
10.88	4.43085
10.89	4.42427
10.9	4.41835
10.91	4.42065
10.92	4.41111
10.93	4.42559
10.94	4.41999
10.95	4.41539
10.96	4.41341
10.97	4.41901
10.98	4.4098
10.99	4.40618
11	4.39795
11.01	4.40322
11.02	4.4019
11.03	4.41045
11.04	4.41013
11.05	4.41934
11.06	4.40947
11.07	4.39927
11.08	4.40552
11.09	4.40289
11.1	4.41243
11.11	4.4121
11.12	4.39894
11.13	4.40651
11.14	4.41243
11.15	4.40355
11.16	4.41078
11.17	4.40749
11.18	4.4042
11.19	4.41078
11.2	4.40355
11.21	4.40716
11.22	4.40651
11.23	4.40684
11.24	4.39434
11.25	4.40486
11.26	4.40223
11.27	4.40256
11.28	4.39993
11.29	4.41177
11.3	4.40289
11.31	4.39664
11.32	4.39401
11.33	4.40124
11.34	4.39368
11.35	4.39532
11.36	4.39499
11.37	4.39137
11.38	4.39236
11.39	4.40618
11.4	4.40157
11.41	4.39894
11.42	4.39927
11.43	4.39006
11.44	4.40091
11.45	4.39105
11.46	4.38315
11.47	4.38578
11.48	4.3792
11.49	4.38907
11.5	4.38085
11.51	4.3792
11.52	4.37756
11.53	4.37855
11.54	4.38743
11.55	4.38282
11.56	4.38052
11.57	4.39861
11.58	4.38118
11.59	4.36933
11.6	4.36966
11.61	4.3542
11.62	4.37032
11.63	4.37427
11.64	4.36637
11.65	4.37164
11.66	4.37065
11.67	4.37558
11.68	4.38019
11.69	4.3769
11.7	4.36901
11.71	4.38545
11.72	4.37591
11.73	4.36966
11.74	4.37427
11.75	4.37098
11.76	4.36769
11.77	4.37953
11.78	4.3746
11.79	4.37262
11.8	4.37131
11.81	4.37197
11.82	4.38545
11.83	4.36407
11.84	4.36604
11.85	4.35552
11.86	4.36539
11.87	4.3667
11.88	4.37262
11.89	4.37394
11.9	4.37065
11.91	4.36572
11.92	4.36341
11.93	4.37032
11.94	4.37262
11.95	4.36539
11.96	4.35881
11.97	4.35848
11.98	4.35848
11.99	4.34137
12	4.35552
12.01	4.36341
12.02	4.35749
12.03	4.35091
12.04	4.36637
12.05	4.35322
12.06	4.36835
12.07	4.36012
12.08	4.36308
12.09	4.35947
12.1	4.35058
12.11	4.35124
12.12	4.35091
12.13	4.35322
12.14	4.34861
12.15	4.3394
12.16	4.34631
12.17	4.35256
12.18	4.34993
12.19	4.3417
12.2	4.35453
12.21	4.34762
12.22	4.35947
12.23	4.34828
12.24	4.3496
12.25	4.33808
12.26	4.33743
12.27	4.33348
12.28	4.34532
12.29	4.344
12.3	4.35124
12.31	4.34828
12.32	4.34795
12.33	4.34006
12.34	4.34729
12.35	4.34302
12.36	4.33446
12.37	4.34631
12.38	4.34762
12.39	4.34828
12.4	4.34664
12.41	4.34729
12.42	4.34598
12.43	4.33183
12.44	4.33479
12.45	4.33545
12.46	4.34828
12.47	4.33348
12.48	4.34762
12.49	4.344
12.5	4.34433
12.51	4.33512
12.52	4.34631
12.53	4.34762
12.54	4.33841
12.55	4.32295
12.56	4.32164
12.57	4.33085
12.58	4.32229
12.59	4.33216
12.6	4.33644
12.61	4.32098
12.62	4.31736
12.63	4.32821
12.64	4.32427
12.65	4.33216
12.66	4.34104
12.67	4.32887
12.68	4.32525
12.69	4.33052
12.7	4.32493
12.71	4.33973
12.72	4.33775
12.73	4.32887
12.74	4.33118
12.75	4.32328
12.76	4.32328
12.77	4.32657
12.78	4.32394
12.79	4.32525
12.8	4.32131
12.81	4.32789
12.82	4.33479
12.83	4.32657
12.84	4.33216
12.85	4.32821
12.86	4.33249
12.87	4.32229
12.88	4.31078
12.89	4.32525
12.9	4.32131
12.91	4.32427
12.92	4.32032
12.93	4.33085
12.94	4.31769
12.95	4.31769
12.96	4.31539
12.97	4.32229
12.98	4.3167
12.99	4.33874
13	4.3246
13.01	4.31571
13.02	4.3121
13.03	4.31275
13.04	4.32591
13.05	4.31341
13.06	4.31078
13.07	4.30848
13.08	4.30354
13.09	4.32032
13.1	4.31473
13.11	4.32887
13.12	4.30256
13.13	4.30157
13.14	4.3121
13.15	4.31275
13.16	4.30749
13.17	4.32361
13.18	4.30552
13.19	4.30585
13.2	4.31111
13.21	4.31177
13.22	4.30848
13.23	4.29894
13.24	4.30453
13.25	4.31045
13.26	4.31933
13.27	4.3121
13.28	4.31571
13.29	4.30946
13.3	4.31736
13.31	4.30223
13.32	4.30157
13.33	4.29598
13.34	4.31374
13.35	4.31374
13.36	4.30058
13.37	4.30585
13.38	4.30881
13.39	4.30025
13.4	4.29861
13.41	4.30288
13.42	4.31111
13.43	4.31078
13.44	4.31144
13.45	4.30683
13.46	4.29137
13.47	4.3065
13.48	4.30519
13.49	4.29861
13.5	4.30354
13.51	4.2917
13.52	4.294
13.53	4.30387
13.54	4.30124
13.55	4.294
13.56	4.29367
13.57	4.28841
13.58	4.294
13.59	4.29565
13.6	4.30058
13.61	4.29269
13.62	4.29302
13.63	4.28709
13.64	4.29532
13.65	4.29269
13.66	4.29071
13.67	4.29466
13.68	4.29795
13.69	4.2996
13.7	4.30058
13.71	4.28611
13.72	4.29696
13.73	4.29269
13.74	4.29335
13.75	4.29631
13.76	4.30519
13.77	4.30979
13.78	4.28973
13.79	4.29367
13.8	4.29203
13.81	4.294
13.82	4.28709
13.83	4.30848
13.84	4.30716
13.85	4.29696
13.86	4.28907
13.87	4.28446
13.88	4.2996
13.89	4.28578
13.9	4.29104
13.91	4.28249
13.92	4.28808
13.93	4.2792
13.94	4.27262
13.95	4.28479
13.96	4.30617
13.97	4.28742
13.98	4.28479
13.99	4.29499
14	4.28775
14.01	4.28282
14.02	4.27657
14.03	4.28874
14.04	4.29433
14.05	4.2815
14.06	4.27065
14.07	4.27887
14.08	4.28611
14.09	4.28874
14.1	4.28808
14.11	4.29696
14.12	4.29104
14.13	4.27723
14.14	4.28709
14.15	4.27788
14.16	4.26999
14.17	4.27361
14.18	4.28052
14.19	4.28381
14.2	4.28381
14.21	4.28446
14.22	4.27821
14.23	4.28545
14.24	4.29433
14.25	4.28117
14.26	4.27788
14.27	4.28709
14.28	4.28315
14.29	4.2894
14.3	4.28479
14.31	4.28709
14.32	4.28249
14.33	4.28709
14.34	4.27065
14.35	4.27525
14.36	4.28216
14.37	4.28512
14.38	4.27098
14.39	4.27262
14.4	4.28052
14.41	4.28052
14.42	4.28578
14.43	4.28545
14.44	4.27427
14.45	4.27163
14.46	4.27229
14.47	4.27229
14.48	4.2815
14.49	4.29927
14.5	4.27427
14.51	4.28578
14.52	4.27953
14.53	4.27723
14.54	4.27163
14.55	4.27756
14.56	4.27196
14.57	4.26242
14.58	4.27394
14.59	4.26407
14.6	4.27591
14.61	4.2792
14.62	4.27624
14.63	4.27361
14.64	4.2713
14.65	4.26538
14.66	4.26407
14.67	4.26078
14.68	4.27887
14.69	4.28348
14.7	4.27624
14.71	4.27098
14.72	4.26538
14.73	4.25584
14.74	4.269
14.75	4.27427
14.76	4.27788
14.77	4.27032
14.78	4.27361
14.79	4.26407
14.8	4.27624
14.81	4.27262
14.82	4.26834
14.83	4.28578
14.84	4.27229
14.85	4.27229
14.86	4.2713
14.87	4.27591
14.88	4.2713
14.89	4.28052
14.9	4.27295
14.91	4.27163
14.92	4.28381
14.93	4.2769
14.94	4.26769
14.95	4.27394
14.96	4.28315
14.97	4.27525
14.98	4.27756
14.99	4.269
15	4.27032
15.01	4.27262
15.02	4.27788
15.03	4.27558
15.04	4.26078
15.05	4.27887
15.06	4.27427
15.07	4.27492
15.08	4.26769
15.09	4.26637
15.1	4.26111
15.11	4.26505
15.12	4.2588
15.13	4.2713
15.14	4.269
15.15	4.26538
15.16	4.27196
15.17	4.26703
15.18	4.26209
15.19	4.26045
15.2	4.25946
15.21	4.26407
15.22	4.25058
15.23	4.24828
15.24	4.25387
15.25	4.25091
15.26	4.269
15.27	4.25552
15.28	4.26144
15.29	4.2644
15.3	4.24959
15.31	4.25782
15.32	4.26703
15.33	4.26012
15.34	4.25716
15.35	4.2644
15.36	4.25946
15.37	4.2542
15.38	4.26012
15.39	4.25946
15.4	4.25058
15.41	4.24894
15.42	4.25913
15.43	4.25716
15.44	4.25519
15.45	4.25255
15.46	4.25683
15.47	4.24499
15.48	4.24433
15.49	4.25058
15.5	4.25617
15.51	4.25058
15.52	4.24992
15.53	4.24762
15.54	4.26177
15.55	4.25124
15.56	4.24203
15.57	4.24729
15.58	4.24663
15.59	4.24104
15.6	4.26473
15.61	4.26209
15.62	4.25124
15.63	4.269
15.64	4.2542
15.65	4.25486
15.66	4.2588
15.67	4.24696
15.68	4.2519
15.69	4.24992
15.7	4.26177
15.71	4.26177
15.72	4.25321
15.73	4.24762
15.74	4.2519
15.75	4.25815
15.76	4.25617
15.77	4.25255
15.78	4.244
15.79	4.24334
15.8	4.25848
15.81	4.25486
15.82	4.25552
15.83	4.244
15.84	4.25025
15.85	4.25288
15.86	4.25584
15.87	4.25223
15.88	4.24203
15.89	4.24269
15.9	4.23709
15.91	4.24532
15.92	4.25519
15.93	4.26703
15.94	4.25354
15.95	4.2542
15.96	4.24926
15.97	4.23775
15.98	4.25453
15.99	4.24499
16	4.23545
16.01	4.24729
16.02	4.25519
16.03	4.24926
16.04	4.24598
16.05	4.23808
16.06	4.24203
16.07	4.24433
16.08	4.24433
16.09	4.23709
16.1	4.24301
16.11	4.24203
16.12	4.24301
16.13	4.23084
16.14	4.23973
16.15	4.24005
16.16	4.23413
16.17	4.24203
16.18	4.24236
16.19	4.24334
16.2	4.23973
16.21	4.23347
16.22	4.23347
16.23	4.23841
16.24	4.23512
16.25	4.24894
16.26	4.22492
16.27	4.22821
16.28	4.23775
16.29	4.25058
16.3	4.23611
16.31	4.24696
16.32	4.24334
16.33	4.24301
16.34	4.24038
16.35	4.24334
16.36	4.23315
16.37	4.23874
16.38	4.23775
16.39	4.24236
16.4	4.24565
16.41	4.23709
16.42	4.2417
16.43	4.23907
16.44	4.24926
16.45	4.22953
16.46	4.24071
16.47	4.25552
16.48	4.24959
16.49	4.23545
16.5	4.24959
16.51	4.24729
16.52	4.24926
16.53	4.24466
16.54	4.24367
16.55	4.2394
16.56	4.2588
16.57	4.24532
16.58	4.244
16.59	4.23084
16.6	4.23742
16.61	4.23874
16.62	4.23611
16.63	4.24301
16.64	4.22953
16.65	4.22196
16.66	4.2417
16.67	4.24992
16.68	4.23808
16.69	4.24203
16.7	4.23347
16.71	4.2463
16.72	4.23808
16.73	4.24104
16.74	4.23775
16.75	4.22492
16.76	4.2213
16.77	4.23315
16.78	4.23347
16.79	4.23611
16.8	4.24466
16.81	4.23347
16.82	4.23347
16.83	4.23347
16.84	4.23117
16.85	4.22986
16.86	4.22854
16.87	4.23578
16.88	4.2394
16.89	4.23578
16.9	4.21505
16.91	4.23117
16.92	4.22394
16.93	4.219
16.94	4.21472
16.95	4.22755
16.96	4.2269
16.97	4.22459
16.98	4.22196
16.99	4.22788
17	4.2394
17.01	4.23907
17.02	4.23578
17.03	4.22459
17.04	4.22426
17.05	4.22525
17.06	4.22755
17.07	4.22525
17.08	4.23874
17.09	4.22426
17.1	4.22065
17.11	4.21966
17.12	4.22163
17.13	4.22986
17.14	4.22525
17.15	4.24696
17.16	4.24696
17.17	4.22459
17.18	4.2042
17.19	4.21078
17.2	4.22854
17.21	4.23216
17.22	4.22196
17.23	4.23709
17.24	4.22755
17.25	4.23347
17.26	4.2167
17.27	4.21538
17.28	4.22163
17.29	4.23775
17.3	4.22459
17.31	4.22788
17.32	4.23676
17.33	4.23841
17.34	4.22788
17.35	4.23051
17.36	4.23479
17.37	4.23019
17.38	4.21604
17.39	4.22196
17.4	4.23117
17.41	4.23907
17.42	4.2269
17.43	4.22591
17.44	4.22624
17.45	4.23611
17.46	4.22361
17.47	4.20782
17.48	4.22887
17.49	4.22591
17.5	4.2213
17.51	4.22196
17.52	4.23051
17.53	4.22229
17.54	4.21933
17.55	4.22163
17.56	4.21933
17.57	4.23709
17.58	4.24663
17.59	4.23019
17.6	4.23545
17.61	4.23051
17.62	4.22426
17.63	4.22986
17.64	4.21801
17.65	4.22032
17.66	4.22591
17.67	4.23051
17.68	4.22295
17.69	4.2088
17.7	4.2213
17.71	4.20979
17.72	4.21045
17.73	4.22788
17.74	4.22624
17.75	4.22295
17.76	4.21209
17.77	4.21045
17.78	4.22328
17.79	4.22459
17.8	4.21604
17.81	4.21538
17.82	4.22459
17.83	4.23446
17.84	4.22591
17.85	4.23742
17.86	4.22065
17.87	4.2269
17.88	4.22525
17.89	4.22328
17.9	4.22525
17.91	4.22459
17.92	4.22722
17.93	4.2269
17.94	4.2292
17.95	4.23907
17.96	4.22788
17.97	4.22591
17.98	4.22328
17.99	4.23709
18	4.244
18.01	4.23084
18.02	4.21637
18.03	4.2213
18.04	4.21933
18.05	4.21341
18.06	4.21538
18.07	4.219
18.08	4.21867
18.09	4.22229
18.1	4.21341
18.11	4.21768
18.12	4.21505
18.13	4.21571
18.14	4.22459
18.15	4.21604
18.16	4.2144
18.17	4.21736
18.18	4.21341
18.19	4.2088
18.2	4.21703
18.21	4.21176
18.22	4.22394
18.23	4.22361
18.24	4.2213
18.25	4.19828
18.26	4.20979
18.27	4.20584
18.28	4.20551
18.29	4.20847
18.3	4.2144
18.31	4.21111
18.32	4.20847
18.33	4.21538
18.34	4.21341
18.35	4.22163
18.36	4.21768
18.37	4.21111
18.38	4.21604
18.39	4.21308
18.4	4.21045
18.41	4.20782
18.42	4.22163
18.43	4.21703
18.44	4.21308
18.45	4.21505
18.46	4.21045
18.47	4.20189
18.48	4.1963
18.49	4.2042
18.5	4.20946
18.51	4.22361
18.52	4.22065
18.53	4.20453
18.54	4.20189
18.55	4.20551
18.56	4.21538
18.57	4.21834
18.58	4.21768
18.59	4.21736
18.6	4.21341
18.61	4.2167
18.62	4.22163
18.63	4.20058
18.64	4.20222
18.65	4.20946
18.66	4.21472
18.67	4.20091
18.68	4.2088
18.69	4.19926
18.7	4.21143
18.71	4.20946
18.72	4.19532
18.73	4.21999
18.74	4.20321
18.75	4.20025
18.76	4.21275
18.77	4.21571
18.78	4.20683
18.79	4.20321
18.8	4.19959
18.81	4.20486
18.82	4.21275
18.83	4.20518
18.84	4.20551
18.85	4.21768
18.86	4.219
18.87	4.21111
18.88	4.20387
18.89	4.20518
18.9	4.20716
18.91	4.21407
18.92	4.20946
18.93	4.21275
18.94	4.22361
18.95	4.2065
18.96	4.20913
18.97	4.20716
18.98	4.20222
18.99	4.21308
19	4.21538
19.01	4.21472
19.02	4.19663
19.03	4.2065
19.04	4.22032
19.05	4.22065
19.06	4.21275
19.07	4.2088
19.08	4.22097
19.09	4.22426
19.1	4.21999
19.11	4.22591
19.12	4.21374
19.13	4.21341
19.14	4.20518
19.15	4.20584
19.16	4.19729
19.17	4.19564
19.18	4.20255
19.19	4.20683
19.2	4.20946
19.21	4.20091
19.22	4.194
19.23	4.20453
19.24	4.21472
19.25	4.19466
19.26	4.20815
19.27	4.22657
19.28	4.21209
19.29	4.22262
19.3	4.20749
19.31	4.19203
19.32	4.19926
19.33	4.21012
19.34	4.21242
19.35	4.2088
19.36	4.20946
19.37	4.21933
19.38	4.21571
19.39	4.19005
19.4	4.21703
19.41	4.20716
19.42	4.20617
19.43	4.20683
19.44	4.20617
19.45	4.21374
19.46	4.19926
19.47	4.19762
19.48	4.20913
19.49	4.21703
19.5	4.21275
19.51	4.20387
19.52	4.20683
19.53	4.21604
19.54	4.21209
19.55	4.22065
19.56	4.21604
19.57	4.20847
19.58	4.21143
19.59	4.2213
19.6	4.21275
19.61	4.22262
19.62	4.21407
19.63	4.21505
19.64	4.2042
19.65	4.2088
19.66	4.20617
19.67	4.20486
19.68	4.2088
19.69	4.20321
19.7	4.21111
19.71	4.21407
19.72	4.219
19.73	4.21736
19.74	4.20815
19.75	4.21538
19.76	4.21045
19.77	4.19926
19.78	4.20321
19.79	4.20551
19.8	4.20913
19.81	4.21801
19.82	4.21604
19.83	4.20584
19.84	4.21078
19.85	4.21209
19.86	4.20847
19.87	4.20157
19.88	4.19433
19.89	4.19926
19.9	4.19433
19.91	4.20288
19.92	4.20058
19.93	4.21012
19.94	4.20025
19.95	4.18446
19.96	4.18282
19.97	4.19762
19.98	4.18907
19.99	4.18907
20	4.19663
20.01	4.18742
20.02	4.18874
20.03	4.20157
20.04	4.20091
20.05	4.20058
20.06	4.20913
20.07	4.18907
20.08	4.18939
20.09	4.19564
20.1	4.19236
20.11	4.19861
20.12	4.19433
20.13	4.20387
20.14	4.19005
20.15	4.18479
20.16	4.19992
20.17	4.19729
20.18	4.20189
20.19	4.19762
20.2	4.19729
20.21	4.19038
20.22	4.19466
20.23	4.19663
20.24	4.20387
20.25	4.21341
20.26	4.19893
20.27	4.21703
20.28	4.20979
20.29	4.2144
20.3	4.19828
20.31	4.19433
20.32	4.19828
20.33	4.21045
20.34	4.20354
20.35	4.19959
20.36	4.19301
20.37	4.2042
20.38	4.19663
20.39	4.19861
20.4	4.20091
20.41	4.19203
20.42	4.21143
20.43	4.20847
20.44	4.19959
20.45	4.20255
20.46	4.19005
20.47	4.19762
20.48	4.20157
20.49	4.20518
20.5	4.20354
20.51	4.19795
20.52	4.19564
20.53	4.18479
20.54	4.19532
20.55	4.20486
20.56	4.19959
20.57	4.18907
20.58	4.20946
20.59	4.20321
20.6	4.20354
20.61	4.20387
20.62	4.19466
20.63	4.18841
20.64	4.18874
20.65	4.20255
20.66	4.19893
20.67	4.17887
20.68	4.18643
20.69	4.18413
20.7	4.18282
20.71	4.18051
20.72	4.18775
20.73	4.19564
20.74	4.20321
20.75	4.19203
20.76	4.1736
20.77	4.18907
20.78	4.19071
20.79	4.19861
20.8	4.1861
20.81	4.19268
20.82	4.18808
20.83	4.18545
20.84	4.19795
20.85	4.18183
20.86	4.19564
20.87	4.18512
20.88	4.18874
20.89	4.19005
20.9	4.19334
20.91	4.18084
20.92	4.18545
20.93	4.17558
20.94	4.19597
20.95	4.19005
20.96	4.19532
20.97	4.19663
20.98	4.19203
20.99	4.19334
21	4.18841
21.01	4.2042
21.02	4.18972
21.03	4.19729
21.04	4.18939
21.05	4.19071
21.06	4.19795
21.07	4.19038
21.08	4.17393
21.09	4.19203
21.1	4.19104
21.11	4.18907
21.12	4.20091
21.13	4.19268
21.14	4.19137
21.15	4.19696
21.16	4.19203
21.17	4.19564
21.18	4.20617
21.19	4.19071
21.2	4.20321
21.21	4.194
21.22	4.18775
21.23	4.19071
21.24	4.20518
21.25	4.19038
21.26	4.18578
21.27	4.19005
21.28	4.18709
21.29	4.19499
21.3	4.1963
21.31	4.19992
21.32	4.20584
21.33	4.18709
21.34	4.18742
21.35	4.1838
21.36	4.19005
21.37	4.18775
21.38	4.17657
21.39	4.18249
21.4	4.18808
21.41	4.18874
21.42	4.18676
21.43	4.19203
21.44	4.19466
21.45	4.20025
21.46	4.1963
21.47	4.19466
21.48	4.19729
21.49	4.1917
21.5	4.18249
21.51	4.19367
21.52	4.18314
21.53	4.18841
21.54	4.20091
21.55	4.18347
21.56	4.18446
21.57	4.19038
21.58	4.19268
21.59	4.17295
21.6	4.18051
21.61	4.19236
21.62	4.18347
21.63	4.1713
21.64	4.17031
21.65	4.18972
21.66	4.19499
21.67	4.18939
21.68	4.1815
21.69	4.1838
21.7	4.17985
21.71	4.18545
21.72	4.18939
21.73	4.19005
21.74	4.19005
21.75	4.18907
21.76	4.19729
21.77	4.18578
21.78	4.18282
21.79	4.19005
21.8	4.18676
21.81	4.19038
21.82	4.18282
21.83	4.17031
21.84	4.19532
21.85	4.18545
21.86	4.18907
21.87	4.18183
21.88	4.18512
21.89	4.18413
21.9	4.18413
21.91	4.19104
21.92	4.17722
21.93	4.18018
21.94	4.18512
21.95	4.18709
21.96	4.19005
21.97	4.17854
21.98	4.17492
21.99	4.1838
22	4.19466
22.01	4.19203
22.02	4.17755
22.03	4.18512
22.04	4.18216
22.05	4.19795
22.06	4.18018
22.07	4.17887
22.08	4.17953
22.09	4.18249
22.1	4.18808
22.11	4.18808
22.12	4.18709
22.13	4.18183
22.14	4.17788
22.15	4.18808
22.16	4.17854
22.17	4.18512
22.18	4.17722
22.19	4.18578
22.2	4.19268
22.21	4.18084
22.22	4.19367
22.23	4.19236
22.24	4.19663
22.25	4.19696
22.26	4.19959
22.27	4.17591
22.28	4.18314
22.29	4.18282
22.3	4.19301
22.31	4.18841
22.32	4.17591
22.33	4.18939
22.34	4.19959
22.35	4.20058
22.36	4.19071
22.37	4.18314
22.38	4.18676
22.39	4.19729
22.4	4.18874
22.41	4.18512
22.42	4.18479
22.43	4.18249
22.44	4.19301
22.45	4.18841
22.46	4.18545
22.47	4.19696
22.48	4.18413
22.49	4.18249
22.5	4.18643
22.51	4.1792
22.52	4.17558
22.53	4.18808
22.54	4.17393
22.55	4.18643
22.56	4.1838
22.57	4.18578
22.58	4.19071
22.59	4.18216
22.6	4.18216
22.61	4.16703
22.62	4.1815
22.63	4.19564
22.64	4.18051
22.65	4.18643
22.66	4.18413
22.67	4.19005
22.68	4.19334
22.69	4.18084
22.7	4.16768
22.71	4.17492
22.72	4.17887
22.73	4.19334
22.74	4.17591
22.75	4.17755
22.76	4.18479
22.77	4.17459
22.78	4.17262
22.79	4.17624
22.8	4.17295
22.81	4.17426
22.82	4.17854
22.83	4.18578
22.84	4.1792
22.85	4.17426
22.86	4.18084
22.87	4.1838
22.88	4.18282
22.89	4.16999
22.9	4.17887
22.91	4.17788
22.92	4.17328
22.93	4.17985
22.94	4.17492
22.95	4.1736
22.96	4.17722
22.97	4.17887
22.98	4.16966
22.99	4.16637
23	4.18183
23.01	4.18084
23.02	4.17657
23.03	4.17525
23.04	4.17985
23.05	4.17558
23.06	4.17985
23.07	4.18545
23.08	4.18413
23.09	4.17985
23.1	4.18676
23.11	4.18018
23.12	4.18545
23.13	4.18413
23.14	4.16768
23.15	4.17591
23.16	4.17097
23.17	4.18446
23.18	4.18117
23.19	4.17854
23.2	4.18907
23.21	4.17821
23.22	4.17262
23.23	4.17624
23.24	4.18874
23.25	4.17854
23.26	4.1815
23.27	4.169
23.28	4.17163
23.29	4.18084
23.3	4.18512
23.31	4.18183
23.32	4.16439
23.33	4.17097
23.34	4.17492
23.35	4.16439
23.36	4.17821
23.37	4.16374
23.38	4.18282
23.39	4.17591
23.4	4.17854
23.41	4.17755
23.42	4.16571
23.43	4.17328
23.44	4.17393
23.45	4.16571
23.46	4.18413
23.47	4.1792
23.48	4.16341
23.49	4.15354
23.5	4.16604
23.51	4.17657
23.52	4.16604
23.53	4.16801
23.54	4.16933
23.55	4.17854
23.56	4.18446
23.57	4.17755
23.58	4.17064
23.59	4.16735
23.6	4.16834
23.61	4.16834
23.62	4.1611
23.63	4.16637
23.64	4.17525
23.65	4.16735
23.66	4.16735
23.67	4.17295
23.68	4.15847
23.69	4.17295
23.7	4.17064
23.71	4.16406
23.72	4.1667
23.73	4.16439
23.74	4.16209
23.75	4.16703
23.76	4.17426
23.77	4.16834
23.78	4.16604
23.79	4.16801
23.8	4.18216
23.81	4.17426
23.82	4.15518
23.83	4.16801
23.84	4.17854
23.85	4.17196
23.86	4.18117
23.87	4.18709
23.88	4.17722
23.89	4.16637
23.9	4.1736
23.91	4.16735
23.92	4.16735
23.93	4.16801
23.94	4.16637
23.95	4.16242
23.96	4.17426
23.97	4.17722
23.98	4.18084
23.99	4.19137
24	4.17558
24.01	4.1736
24.02	4.17755
24.03	4.169
24.04	4.16439
24.05	4.18512
24.06	4.18446
24.07	4.16242
24.08	4.16505
24.09	4.16999
24.1	4.1588
24.11	4.1667
24.12	4.18216
24.13	4.1667
24.14	4.16768
24.15	4.18183
24.16	4.17295
24.17	4.16439
24.18	4.16078
24.19	4.16538
24.2	4.17295
24.21	4.17657
24.22	4.16637
24.23	4.17064
24.24	4.17229
24.25	4.17295
24.26	4.17953
24.27	4.18084
24.28	4.16308
24.29	4.16703
24.3	4.169
24.31	4.16703
24.32	4.17459
24.33	4.16768
24.34	4.16999
24.35	4.17492
24.36	4.16966
24.37	4.16999
24.38	4.16999
24.39	4.16637
24.4	4.1611
24.41	4.16275
24.42	4.17064
24.43	4.16703
24.44	4.17064
24.45	4.1736
24.46	4.16933
24.47	4.17229
24.48	4.1588
24.49	4.15255
24.5	4.14762
24.51	4.15814
24.52	4.16571
24.53	4.1736
24.54	4.16637
24.55	4.15979
24.56	4.16735
24.57	4.17295
24.58	4.17426
24.59	4.18018
24.6	4.16374
24.61	4.17985
24.62	4.17722
24.63	4.17426
24.64	4.16538
24.65	4.15749
24.66	4.15518
24.67	4.15354
24.68	4.1667
24.69	4.16966
24.7	4.16999
24.71	4.17393
24.72	4.1667
24.73	4.16703
24.74	4.17196
24.75	4.16341
24.76	4.16768
24.77	4.16834
24.78	4.18051
24.79	4.16275
24.8	4.15979
24.81	4.16275
24.82	4.16735
24.83	4.16406
24.84	4.15716
24.85	4.17196
24.86	4.16801
24.87	4.16078
24.88	4.17295
24.89	4.16176
24.9	4.16867
24.91	4.17097
24.92	4.15683
24.93	4.15617
24.94	4.16242
24.95	4.16703
24.96	4.16406
24.97	4.15913
24.98	4.17031
24.99	4.16966
25	4.15518
25.01	4.17591
25.02	4.17163
25.03	4.16538
25.04	4.16801
25.05	4.16341
25.06	4.16209
25.07	4.15781
25.08	4.16012
25.09	4.16637
25.1	4.16768
25.11	4.16768
25.12	4.17591
25.13	4.16637
25.14	4.15189
25.15	4.16242
25.16	4.16045
25.17	4.17097
25.18	4.16308
25.19	4.1542
25.2	4.16308
25.21	4.16341
25.22	4.16242
25.23	4.16867
25.24	4.16439
25.25	4.17887
25.26	4.1713
25.27	4.16209
25.28	4.16933
25.29	4.17097
25.3	4.15979
25.31	4.14992
25.32	4.14893
25.33	4.15913
25.34	4.16341
25.35	4.16242
25.36	4.16078
25.37	4.1667
25.38	4.1542
25.39	4.1542
25.4	4.16012
25.41	4.15716
25.42	4.15781
25.43	4.169
25.44	4.16406
25.45	4.15321
25.46	4.15716
25.47	4.16275
25.48	4.16308
25.49	4.16374
25.5	4.15551
25.51	4.17229
25.52	4.16867
25.53	4.16538
25.54	4.14926
25.55	4.16966
25.56	4.1713
25.57	4.16735
25.58	4.15551
25.59	4.1713
25.6	4.1588
25.61	4.1736
25.62	4.16999
25.63	4.16374
25.64	4.16505
25.65	4.17295
25.66	4.17328
25.67	4.17064
25.68	4.16209
25.69	4.15255
25.7	4.15551
25.71	4.16012
25.72	4.16308
25.73	4.16801
25.74	4.17163
25.75	4.1667
25.76	4.16012
25.77	4.16012
25.78	4.16867
25.79	4.17459
25.8	4.17591
25.81	4.17459
25.82	4.17591
25.83	4.17229
25.84	4.16078
25.85	4.17985
25.86	4.16867
25.87	4.17196
25.88	4.16801
25.89	4.17591
25.9	4.16834
25.91	4.16341
25.92	4.1565
25.93	4.17459
25.94	4.16571
25.95	4.15584
25.96	4.16045
25.97	4.16374
25.98	4.17229
25.99	4.16571
26	4.17295
26.01	4.1588
26.02	4.15518
26.03	4.16505
26.04	4.16604
26.05	4.16768
26.06	4.16801
26.07	4.16966
26.08	4.1667
26.09	4.16439
26.1	4.14564
26.11	4.16209
26.12	4.16012
26.13	4.15387
26.14	4.16571
26.15	4.15189
26.16	4.15814
26.17	4.17393
26.18	4.1611
26.19	4.144
26.2	4.15847
26.21	4.17031
26.22	4.16439
26.23	4.1542
26.24	4.15781
26.25	4.15025
26.26	4.14696
26.27	4.15288
26.28	4.1667
26.29	4.16801
26.3	4.15189
26.31	4.13939
26.32	4.16341
26.33	4.14795
26.34	4.15025
26.35	4.15518
26.36	4.15584
26.37	4.15551
26.38	4.15321
26.39	4.14696
26.4	4.15617
26.41	4.15946
26.42	4.16275
26.43	4.15749
26.44	4.14795
26.45	4.15781
26.46	4.15716
26.47	4.15814
26.48	4.16538
26.49	4.15485
26.5	4.15814
26.51	4.16505
26.52	4.1486
26.53	4.15321
26.54	4.15749
26.55	4.15814
26.56	4.15584
26.57	4.16735
26.58	4.16439
26.59	4.16209
26.6	4.15354
26.61	4.15551
26.62	4.1486
26.63	4.16538
26.64	4.16735
26.65	4.14992
26.66	4.15518
26.67	4.15814
26.68	4.14827
26.69	4.15452
26.7	4.1542
26.71	4.15189
26.72	4.17031
26.73	4.15485
26.74	4.16374
26.75	4.16078
26.76	4.1838
26.77	4.16801
26.78	4.16045
26.79	4.16045
26.8	4.144
26.81	4.15321
26.82	4.14827
26.83	4.15781
26.84	4.16768
26.85	4.16703
26.86	4.16439
26.87	4.1667
26.88	4.15781
26.89	4.15617
26.9	4.14926
26.91	4.15518
26.92	4.15781
26.93	4.14729
26.94	4.16308
26.95	4.15814
26.96	4.16505
26.97	4.16439
26.98	4.15781
26.99	4.1565
27	4.15814
27.01	4.16308
27.02	4.15551
27.03	4.15683
27.04	4.15288
27.05	4.16078
27.06	4.16538
27.07	4.15551
27.08	4.15584
27.09	4.15124
27.1	4.15781
27.11	4.15091
27.12	4.15124
27.13	4.16637
27.14	4.16242
27.15	4.15518
27.16	4.15485
27.17	4.1588
27.18	4.14795
27.19	4.13906
27.2	4.1713
27.21	4.17229
27.22	4.14795
27.23	4.15847
27.24	4.1667
27.25	4.15913
27.26	4.15255
27.27	4.17689
27.28	4.16275
27.29	4.15979
27.3	4.16308
27.31	4.16703
27.32	4.16012
27.33	4.14762
27.34	4.15814
27.35	4.16637
27.36	4.14531
27.37	4.14762
27.38	4.1486
27.39	4.14564
27.4	4.15781
27.41	4.15354
27.42	4.15124
27.43	4.15979
27.44	4.15814
27.45	4.14597
27.46	4.14663
27.47	4.15288
27.48	4.16374
27.49	4.16933
27.5	4.15189
27.51	4.14367
27.52	4.13841
27.53	4.14893
27.54	4.15255
27.55	4.16439
27.56	4.16209
27.57	4.14235
27.58	4.16045
27.59	4.14926
27.6	4.14301
27.61	4.14795
27.62	4.15617
27.63	4.16209
27.64	4.15716
27.65	4.15485
27.66	4.14992
27.67	4.15847
27.68	4.15091
27.69	4.14268
27.7	4.14301
27.71	4.14696
27.72	4.14696
27.73	4.14992
27.74	4.15452
27.75	4.15781
27.76	4.15354
27.77	4.15189
27.78	4.16308
27.79	4.16571
27.8	4.16703
27.81	4.15255
27.82	4.14729
27.83	4.14301
27.84	4.14926
27.85	4.15979
27.86	4.14202
27.87	4.14104
27.88	4.14729
27.89	4.15617
27.9	4.14893
27.91	4.15518
27.92	4.15946
27.93	4.1463
27.94	4.1565
27.95	4.16406
27.96	4.17031
27.97	4.15124
27.98	4.14499
27.99	4.15255
28	4.16571
28.01	4.15584
28.02	4.16275
28.03	4.15814
28.04	4.15091
28.05	4.14301
28.06	4.14992
28.07	4.15058
28.08	4.13972
28.09	4.1486
28.1	4.15749
28.11	4.15156
28.12	4.14663
28.13	4.15979
28.14	4.15617
28.15	4.1611
28.16	4.15814
28.17	4.16045
28.18	4.15749
28.19	4.14564
28.2	4.15781
28.21	4.15288
28.22	4.15255
28.23	4.15058
28.24	4.1565
28.25	4.16143
28.26	4.16341
28.27	4.15518
28.28	4.15781
28.29	4.15551
28.3	4.15025
28.31	4.15452
28.32	4.14992
28.33	4.15617
28.34	4.15749
28.35	4.15091
28.36	4.16209
28.37	4.15288
28.38	4.14005
28.39	4.15518
28.4	4.16374
28.41	4.15716
28.42	4.15222
28.43	4.15946
28.44	4.15452
28.45	4.15946
28.46	4.15749
28.47	4.1463
28.48	4.14499
28.49	4.15452
28.5	4.1463
28.51	4.15485
28.52	4.15321
28.53	4.16374
28.54	4.15551
28.55	4.14762
28.56	4.16045
28.57	4.14959
28.58	4.15025
28.59	4.16078
28.6	4.15058
28.61	4.15617
28.62	4.14959
28.63	4.14893
28.64	4.14893
28.65	4.1417
28.66	4.14466
28.67	4.1338
28.68	4.14202
28.69	4.14795
28.7	4.15058
28.71	4.14564
28.72	4.15716
28.73	4.16308
28.74	4.15847
28.75	4.15156
28.76	4.15288
28.77	4.13676
28.78	4.14301
28.79	4.13972
28.8	4.14992
28.81	4.15716
28.82	4.1588
28.83	4.14301
28.84	4.15124
28.85	4.15781
28.86	4.14926
28.87	4.13939
28.88	4.15025
28.89	4.15255
28.9	4.1565
28.91	4.16012
28.92	4.1417
28.93	4.15551
28.94	4.15814
28.95	4.14301
28.96	4.144
28.97	4.15189
28.98	4.15979
28.99	4.15452
29	4.1611
29.01	4.14795
29.02	4.15025
29.03	4.14466
29.04	4.15452
29.05	4.15617
29.06	4.14202
29.07	4.15222
29.08	4.16571
29.09	4.14466
29.1	4.14959
29.11	4.14992
29.12	4.15749
29.13	4.16242
29.14	4.15781
29.15	4.15518
29.16	4.16209
29.17	4.14433
29.18	4.14005
29.19	4.13577
29.2	4.15387
29.21	4.14762
29.22	4.15091
29.23	4.14762
29.24	4.15124
29.25	4.1417
29.26	4.13906
29.27	4.14531
29.28	4.14959
29.29	4.13874
29.3	4.15452
29.31	4.15124
29.32	4.14334
29.33	4.14663
29.34	4.14071
29.35	4.13479
29.36	4.15222
29.37	4.14992
29.38	4.15124
29.39	4.1361
29.4	4.1463
29.41	4.15749
29.42	4.15683
29.43	4.14564
29.44	4.1417
29.45	4.14466
29.46	4.14597
29.47	4.12788
29.48	4.14367
29.49	4.14926
29.5	4.15716
29.51	4.14827
29.52	4.14038
29.53	4.15321
29.54	4.15189
29.55	4.14334
29.56	4.14795
29.57	4.14663
29.58	4.14564
29.59	4.144
29.6	4.14433
29.61	4.14137
29.62	4.13972
29.63	4.13676
29.64	4.14531
29.65	4.15452
29.66	4.14531
29.67	4.15716
29.68	4.14762
29.69	4.15781
29.7	4.1417
29.71	4.16012
29.72	4.16275
29.73	4.15255
29.74	4.15814
29.75	4.16801
29.76	4.16045
29.77	4.14762
29.78	4.14301
29.79	4.14663
29.8	4.15321
29.81	4.14696
29.82	4.14235
29.83	4.14696
29.84	4.14926
29.85	4.1463
29.86	4.14005
29.87	4.14795
29.88	4.14959
29.89	4.15189
29.9	4.15551
29.91	4.16406
29.92	4.169
29.93	4.15518
29.94	4.13577
29.95	4.13709
29.96	4.16341
29.97	4.16209
29.98	4.14827
29.99	4.13841
30	4.14235
