"BIO-KINE ASCII FILE"
"_COMMENT"	"MOS-500 Spectrometer"
"_COMMENT"	"Kinetics measurement"
"_COMMENT"	"Y Unit : Volt,  X Unit : s"
"_COMMENT"	"Excitation wavelength : 380 nm"
"_COMMENT"	"Fentes bandwidth =  1 nm"
"_COMMENT"	"HV= 750V"
"_COMMENT"	"Timebase  1 =  .01 s   3001 pts"
"_SFM"	"SFM-400 /S  Advanced mode"
"_SFM"	"Ratio : S1: 2.5, S2: 0, S3: 0, S4: 1"
"_SFM"	"Content : S1: , S2: , S3: , S4:"
"_SFM"	"Concentration : S1: , S2: , S3: , S4:"
"_SFM"	"Total volume : 209 µl  Flow : 3.5 mL/s"
"_SFM"	"Acquisition start :  10 ms before stop"
"_SFM"	"cuve=FC-15, s1=10 ml , s2=10 ml , s3=10 ml , s4=1.9 ml"
"_UNITX"	"s"
"_UNITY"	"Volt"
"_DELTAX"	0
"_DATA"
1e-300	7.13751
0.01	7.58324
0.02	7.72634
0.03	7.75298
0.04	7.77897
0.05	7.75035
0.06	7.77502
0.07	7.76252
0.08	7.78851
0.09	7.78851
0.1	7.76976
0.11	7.75726
0.12	7.77963
0.13	7.7839
0.14	7.7964
0.15	7.76351
0.16	7.75463
0.17	7.78423
0.18	7.78259
0.19	7.76417
0.2	7.75923
0.21	7.74279
0.22	7.7395
0.23	7.73193
0.24	7.74081
0.25	7.72502
0.26	7.73193
0.27	7.73489
0.28	7.73884
0.29	7.7339
0.3	7.71219
0.31	7.70463
0.32	7.71088
0.33	7.70857
0.34	7.71055
0.35	7.69936
0.36	7.68752
0.37	7.70759
0.38	7.68785
0.39	7.68653
0.4	7.67634
0.41	7.65232
0.42	7.65002
0.43	7.65002
0.44	7.63982
0.45	7.63127
0.46	7.62502
0.47	7.61778
0.48	7.6112
0.49	7.62995
0.5	7.59344
0.51	7.59081
0.52	7.61976
0.53	7.59508
0.54	7.5964
0.55	7.57337
0.56	7.56647
0.57	7.57304
0.58	7.57535
0.59	7.576
0.6	7.57403
0.61	7.53916
0.62	7.55561
0.63	7.54903
0.64	7.53883
0.65	7.51646
0.66	7.53489
0.67	7.54081
0.68	7.51252
0.69	7.51021
0.7	7.5066
0.71	7.51383
0.72	7.49969
0.73	7.4839
0.74	7.48423
0.75	7.47074
0.76	7.46482
0.77	7.46811
0.78	7.46548
0.79	7.43554
0.8	7.45067
0.81	7.43554
0.82	7.44015
0.83	7.42436
0.84	7.41021
0.85	7.41251
0.86	7.42567
0.87	7.41844
0.88	7.41054
0.89	7.40166
0.9	7.39968
0.91	7.39541
0.92	7.38192
0.93	7.3635
0.94	7.35001
0.95	7.35725
0.96	7.36745
0.97	7.36482
0.98	7.35231
0.99	7.34442
1	7.33718
1.01	7.3408
1.02	7.34146
1.03	7.33159
1.04	7.30856
1.05	7.32468
1.06	7.2987
1.07	7.30495
1.08	7.29113
1.09	7.28291
1.1	7.2704
1.11	7.27337
1.12	7.28356
1.13	7.25823
1.14	7.23948
1.15	7.25297
1.16	7.23981
1.17	7.25034
1.18	7.24277
1.19	7.23192
1.2	7.22468
1.21	7.2181
1.22	7.21448
1.23	7.21119
1.24	7.21251
1.25	7.20757
1.26	7.18323
1.27	7.19113
1.28	7.18882
1.29	7.18389
1.3	7.16909
1.31	7.15494
1.32	7.1602
1.33	7.15461
1.34	7.1408
1.35	7.14441
1.36	7.14573
1.37	7.1204
1.38	7.12534
1.39	7.10823
1.4	7.10428
1.41	7.09376
1.42	7.09441
1.43	7.09705
1.44	7.10889
1.45	7.07533
1.46	7.08882
1.47	7.07402
1.48	7.0579
1.49	7.06283
1.5	7.04441
1.51	7.04803
1.52	7.04145
1.53	7.04211
1.54	7.01645
1.55	7.02731
1.56	7.03948
1.57	7.03125
1.58	7.01152
1.59	7.00823
1.6	6.99902
1.61	7.00724
1.62	7.00066
1.63	6.98027
1.64	7.00066
1.65	6.98323
1.66	6.97336
1.67	6.96119
1.68	6.9625
1.69	6.96579
1.7	6.96184
1.71	6.95362
1.72	6.94211
1.73	6.91579
1.74	6.91415
1.75	6.90461
1.76	6.91053
1.77	6.91875
1.78	6.8898
1.79	6.89309
1.8	6.88158
1.81	6.89375
1.82	6.90296
1.83	6.875
1.84	6.85395
1.85	6.8625
1.86	6.85197
1.87	6.85099
1.88	6.86382
1.89	6.84835
1.9	6.82138
1.91	6.82401
1.92	6.83026
1.93	6.82237
1.94	6.81645
1.95	6.81316
1.96	6.79901
1.97	6.81316
1.98	6.78421
1.99	6.77829
2	6.78585
2.01	6.7796
2.02	6.775
2.03	6.74539
2.04	6.74375
2.05	6.75888
2.06	6.76973
2.07	6.75263
2.08	6.75098
2.09	6.73815
2.1	6.73585
2.11	6.74111
2.12	6.72236
2.13	6.73421
2.14	6.72434
2.15	6.70559
2.16	6.69703
2.17	6.69473
2.18	6.67598
2.19	6.6694
2.2	6.68124
2.21	6.69013
2.22	6.67927
2.23	6.68552
2.24	6.68585
2.25	6.68157
2.26	6.65723
2.27	6.65361
2.28	6.65559
2.29	6.64999
2.3	6.65263
2.31	6.62697
2.32	6.63387
2.33	6.61118
2.34	6.61973
2.35	6.63618
2.36	6.6171
2.37	6.60953
2.38	6.61151
2.39	6.58947
2.4	6.574
2.41	6.58815
2.42	6.57993
2.43	6.56052
2.44	6.56315
2.45	6.55295
2.46	6.54243
2.47	6.54078
2.48	6.53815
2.49	6.53289
2.5	6.524
2.51	6.51644
2.52	6.51019
2.53	6.5171
2.54	6.51512
2.55	6.51085
2.56	6.50953
2.57	6.48946
2.58	6.47992
2.59	6.48124
2.6	6.47696
2.61	6.4717
2.62	6.46413
2.63	6.43288
2.64	6.44341
2.65	6.4444
2.66	6.4319
2.67	6.43617
2.68	6.42828
2.69	6.42268
2.7	6.42071
2.71	6.40986
2.72	6.39538
2.73	6.39933
2.74	6.39637
2.75	6.39341
2.76	6.38847
2.77	6.35656
2.78	6.37005
2.79	6.38157
2.8	6.37334
2.81	6.35262
2.82	6.36018
2.83	6.34702
2.84	6.35229
2.85	6.35459
2.86	6.35558
2.87	6.34077
2.88	6.34768
2.89	6.33156
2.9	6.32531
2.91	6.324
2.92	6.32926
2.93	6.3161
2.94	6.30722
2.95	6.29669
2.96	6.29702
2.97	6.29768
2.98	6.2809
2.99	6.28946
3	6.28617
3.01	6.27762
3.02	6.28189
3.03	6.27465
3.04	6.27433
3.05	6.26051
3.06	6.25097
3.07	6.25755
3.08	6.24768
3.09	6.24505
3.1	6.22432
3.11	6.24768
3.12	6.22992
3.13	6.22498
3.14	6.22005
3.15	6.22301
3.16	6.21215
3.17	6.19768
3.18	6.17827
3.19	6.17959
3.2	6.18781
3.21	6.18485
3.22	6.17202
3.23	6.1661
3.24	6.14932
3.25	6.16347
3.26	6.16248
3.27	6.14241
3.28	6.12926
3.29	6.13287
3.3	6.12761
3.31	6.1184
3.32	6.13452
3.33	6.12695
3.34	6.09899
3.35	6.10064
3.36	6.09044
3.37	6.0911
3.38	6.09932
3.39	6.08353
3.4	6.07629
3.41	6.08057
3.42	6.0605
3.43	6.07596
3.44	6.06511
3.45	6.07366
3.46	6.05754
3.47	6.06182
3.48	6.03978
3.49	6.05228
3.5	6.04702
3.51	6.04636
3.52	6.02761
3.53	6.03682
3.54	6.02202
3.55	6.01116
3.56	6.02267
3.57	6.02531
3.58	6.01379
3.59	6.00754
3.6	6.0003
3.61	5.98912
3.62	5.99833
3.63	5.99636
3.64	5.998
3.65	5.98649
3.66	5.9753
3.67	5.97728
3.68	5.9582
3.69	5.94734
3.7	5.96215
3.71	5.94471
3.72	5.92695
3.73	5.93024
3.74	5.93747
3.75	5.93846
3.76	5.92168
3.77	5.91116
3.78	5.91905
3.79	5.9105
3.8	5.90524
3.81	5.91017
3.82	5.89734
3.83	5.88418
3.84	5.86971
3.85	5.873
3.86	5.88418
3.87	5.88484
3.88	5.87695
3.89	5.85523
3.9	5.848
3.91	5.85721
3.92	5.8628
3.93	5.84537
3.94	5.84405
3.95	5.84142
3.96	5.84537
3.97	5.85425
3.98	5.83352
3.99	5.82892
4	5.82629
4.01	5.81938
4.02	5.81214
4.03	5.82398
4.04	5.81247
4.05	5.78319
4.06	5.79964
4.07	5.79438
4.08	5.79043
4.09	5.76247
4.1	5.76905
4.11	5.75457
4.12	5.76411
4.13	5.7674
4.14	5.75951
4.15	5.7503
4.16	5.76313
4.17	5.75819
4.18	5.74076
4.19	5.75326
4.2	5.74898
4.21	5.73714
4.22	5.72727
4.23	5.72464
4.24	5.72135
4.25	5.72267
4.26	5.71016
4.27	5.70753
4.28	5.70293
4.29	5.69668
4.3	5.69865
4.31	5.7003
4.32	5.69799
4.33	5.68286
4.34	5.67299
4.35	5.67233
4.36	5.68845
4.37	5.6776
4.38	5.65523
4.39	5.65918
4.4	5.65885
4.41	5.65622
4.42	5.6447
4.43	5.64997
4.44	5.64832
4.45	5.64108
4.46	5.62168
4.47	5.62233
4.48	5.62135
4.49	5.63253
4.5	5.62069
4.51	5.61839
4.52	5.61016
4.53	5.62233
4.54	5.61246
4.55	5.62727
4.56	5.61082
4.57	5.59503
4.58	5.58779
4.59	5.60621
4.6	5.61608
4.61	5.60523
4.62	5.58845
4.63	5.58319
4.64	5.572
4.65	5.56378
4.66	5.58023
4.67	5.57036
4.68	5.55654
4.69	5.56213
4.7	5.57727
4.71	5.55555
4.72	5.56806
4.73	5.547
4.74	5.54338
4.75	5.55095
4.76	5.55786
4.77	5.53417
4.78	5.53648
4.79	5.54371
4.8	5.54174
4.81	5.52463
4.82	5.52266
4.83	5.51279
4.84	5.50161
4.85	5.4993
4.86	5.51115
4.87	5.49865
4.88	5.49963
4.89	5.50819
4.9	5.48384
4.91	5.47924
4.92	5.47726
4.93	5.48154
4.94	5.46378
4.95	5.47332
4.96	5.47003
4.97	5.46871
4.98	5.47332
4.99	5.46805
5	5.45226
5.01	5.46114
5.02	5.42397
5.03	5.42693
5.04	5.42463
5.05	5.44503
5.06	5.42759
5.07	5.4345
5.08	5.42035
5.09	5.40687
5.1	5.40851
5.11	5.40818
5.12	5.41608
5.13	5.40785
5.14	5.39206
5.15	5.39667
5.16	5.3891
5.17	5.3891
5.18	5.39042
5.19	5.37627
5.2	5.36608
5.21	5.38252
5.22	5.37331
5.23	5.3641
5.24	5.3743
5.25	5.37529
5.26	5.35555
5.27	5.35127
5.28	5.34469
5.29	5.34601
5.3	5.34634
5.31	5.34371
5.32	5.34371
5.33	5.31936
5.34	5.33746
5.35	5.33154
5.36	5.32989
5.37	5.32594
5.38	5.32693
5.39	5.30785
5.4	5.3118
5.41	5.29667
5.42	5.29173
5.43	5.2993
5.44	5.30686
5.45	5.30489
5.46	5.2914
5.47	5.29074
5.48	5.28285
5.49	5.28745
5.5	5.2868
5.51	5.28844
5.52	5.28384
5.53	5.25916
5.54	5.26903
5.55	5.26574
5.56	5.27759
5.57	5.25522
5.58	5.26015
5.59	5.25456
5.6	5.26541
5.61	5.24403
5.62	5.26541
5.63	5.26574
5.64	5.24469
5.65	5.23449
5.66	5.23647
5.67	5.23844
5.68	5.23712
5.69	5.2312
5.7	5.23219
5.71	5.22265
5.72	5.22462
5.73	5.21212
5.74	5.2039
5.75	5.22824
5.76	5.21476
5.77	5.20752
5.78	5.19995
5.79	5.20982
5.8	5.19436
5.81	5.20291
5.82	5.20061
5.83	5.19568
5.84	5.17594
5.85	5.18943
5.86	5.17627
5.87	5.18679
5.88	5.18515
5.89	5.1914
5.9	5.17495
5.91	5.16278
5.92	5.16475
5.93	5.17693
5.94	5.17495
5.95	5.15028
5.96	5.1539
5.97	5.14469
5.98	5.14929
5.99	5.15423
6	5.15225
6.01	5.14732
6.02	5.16048
6.03	5.13646
6.04	5.12988
6.05	5.14436
6.06	5.12758
6.07	5.13054
6.08	5.1414
6.09	5.13383
6.1	5.1187
6.11	5.11015
6.12	5.1164
6.13	5.11179
6.14	5.12067
6.15	5.10916
6.16	5.11508
6.17	5.10028
6.18	5.1108
6.19	5.11475
6.2	5.0983
6.21	5.10324
6.22	5.09337
6.23	5.09205
6.24	5.09173
6.25	5.08416
6.26	5.08646
6.27	5.09501
6.28	5.08482
6.29	5.06837
6.3	5.07199
6.31	5.08317
6.32	5.06771
6.33	5.07265
6.34	5.05653
6.35	5.05192
6.36	5.05488
6.37	5.06047
6.38	5.03679
6.39	5.04468
6.4	5.04238
6.41	5.04271
6.42	5.04732
6.43	5.0562
6.44	5.04139
6.45	5.03251
6.46	5.02626
6.47	5.02725
6.48	5.02758
6.49	5.0312
6.5	5.02001
6.51	5.02363
6.52	5.01738
6.53	5.01376
6.54	5.00817
6.55	4.99633
6.56	5.00653
6.57	5.00159
6.58	5.00093
6.59	4.99995
6.6	4.99633
6.61	4.99172
6.62	5.00587
6.63	4.9835
6.64	4.98152
6.65	4.97791
6.66	4.98251
6.67	4.98613
6.68	4.98251
6.69	4.96968
6.7	4.97955
6.71	4.95455
6.72	4.95093
6.73	4.95685
6.74	4.95916
6.75	4.9585
6.76	4.95784
6.77	4.96179
6.78	4.96902
6.79	4.95587
6.8	4.94106
6.81	4.95817
6.82	4.94698
6.83	4.9279
6.84	4.9335
6.85	4.9381
6.86	4.9381
6.87	4.94205
6.88	4.94665
6.89	4.92363
6.9	4.93021
6.91	4.92922
6.92	4.92067
6.93	4.91672
6.94	4.93087
6.95	4.93054
6.96	4.91738
6.97	4.9279
6.98	4.92692
6.99	4.90652
7	4.91508
7.01	4.92133
7.02	4.91902
7.03	4.91935
7.04	4.91705
7.05	4.8983
7.06	4.90948
7.07	4.90323
7.08	4.89106
7.09	4.90718
7.1	4.89468
7.11	4.89139
7.12	4.90356
7.13	4.89698
7.14	4.89567
7.15	4.88975
7.16	4.88251
7.17	4.88909
7.18	4.88646
7.19	4.87527
7.2	4.86507
7.21	4.86211
7.22	4.86968
7.23	4.87593
7.24	4.86573
7.25	4.87067
7.26	4.86014
7.27	4.86047
7.28	4.86277
7.29	4.86244
7.3	4.85356
7.31	4.8506
7.32	4.83316
7.33	4.84698
7.34	4.84994
7.35	4.84238
7.36	4.85126
7.37	4.84698
7.38	4.85553
7.39	4.84369
7.4	4.82297
7.41	4.81277
7.42	4.81211
7.43	4.82659
7.44	4.81474
7.45	4.8177
7.46	4.82757
7.47	4.82099
7.48	4.82034
7.49	4.80849
7.5	4.80849
7.51	4.81014
7.52	4.80685
7.53	4.79501
7.54	4.80356
7.55	4.80356
7.56	4.80948
7.57	4.79764
7.58	4.79204
7.59	4.78415
7.6	4.80126
7.61	4.79928
7.62	4.79994
7.63	4.80093
7.64	4.80093
7.65	4.78612
7.66	4.77889
7.67	4.76737
7.68	4.77823
7.69	4.78152
7.7	4.77757
7.71	4.76573
7.72	4.77954
7.73	4.77823
7.74	4.77132
7.75	4.75783
7.76	4.77593
7.77	4.77691
7.78	4.76244
7.79	4.74829
7.8	4.75323
7.81	4.75981
7.82	4.77658
7.83	4.7575
7.84	4.75685
7.85	4.7631
7.86	4.75125
7.87	4.7575
7.88	4.74764
7.89	4.73514
7.9	4.74961
7.91	4.75027
7.92	4.7381
7.93	4.74862
7.94	4.74073
7.95	4.7427
7.96	4.74139
7.97	4.74632
7.98	4.73382
7.99	4.73448
8	4.73678
8.01	4.74336
8.02	4.73382
8.03	4.72428
8.04	4.72527
8.05	4.72329
8.06	4.73217
8.07	4.7279
8.08	4.72527
8.09	4.71244
8.1	4.71967
8.11	4.70684
8.12	4.71935
8.13	4.72165
8.14	4.71704
8.15	4.7154
8.16	4.71441
8.17	4.71573
8.18	4.69796
8.19	4.70158
8.2	4.71112
8.21	4.70915
8.22	4.71573
8.23	4.70882
8.24	4.70224
8.25	4.70125
8.26	4.69237
8.27	4.70586
8.28	4.69895
8.29	4.6848
8.3	4.69171
8.31	4.69895
8.32	4.68349
8.33	4.6825
8.34	4.69599
8.35	4.68119
8.36	4.68974
8.37	4.67954
8.38	4.68842
8.39	4.66934
8.4	4.66901
8.41	4.68744
8.42	4.67527
8.43	4.67954
8.44	4.66737
8.45	4.6677
8.46	4.67165
8.47	4.67823
8.48	4.67132
8.49	4.66112
8.5	4.67296
8.51	4.64928
8.52	4.67132
8.53	4.65948
8.54	4.65717
8.55	4.65191
8.56	4.65487
8.57	4.65191
8.58	4.65487
8.59	4.63776
8.6	4.63711
8.61	4.64303
8.62	4.64862
8.63	4.63645
8.64	4.63875
8.65	4.63447
8.66	4.63678
8.67	4.62888
8.68	4.63809
8.69	4.6279
8.7	4.62757
8.71	4.63316
8.72	4.63447
8.73	4.63579
8.74	4.63415
8.75	4.61934
8.76	4.62757
8.77	4.62855
8.78	4.6325
8.79	4.6177
8.8	4.62625
8.81	4.62099
8.82	4.62526
8.83	4.60914
8.84	4.61342
8.85	4.60421
8.86	4.61375
8.87	4.6098
8.88	4.60914
8.89	4.59368
8.9	4.61572
8.91	4.59533
8.92	4.59895
8.93	4.60783
8.94	4.62263
8.95	4.61243
8.96	4.60191
8.97	4.59303
8.98	4.59138
8.99	4.5927
9	4.59368
9.01	4.5973
9.02	4.60454
9.03	4.59138
9.04	4.59007
9.05	4.59171
9.06	4.59138
9.07	4.58612
9.08	4.57888
9.09	4.57592
9.1	4.58612
9.11	4.58381
9.12	4.59204
9.13	4.58217
9.14	4.56342
9.15	4.56638
9.16	4.58283
9.17	4.58349
9.18	4.57526
9.19	4.57559
9.2	4.56704
9.21	4.56408
9.22	4.57724
9.23	4.57625
9.24	4.55849
9.25	4.56177
9.26	4.56145
9.27	4.57099
9.28	4.56737
9.29	4.5677
9.3	4.56375
9.31	4.56638
9.32	4.55651
9.33	4.5677
9.34	4.55585
9.35	4.5598
9.36	4.5496
9.37	4.57066
9.38	4.56671
9.39	4.55223
9.4	4.54533
9.41	4.54401
9.42	4.55849
9.43	4.54566
9.44	4.55947
9.45	4.55783
9.46	4.54598
9.47	4.545
9.48	4.54072
9.49	4.54302
9.5	4.54105
9.51	4.54763
9.52	4.5552
9.53	4.5575
9.54	4.54006
9.55	4.54368
9.56	4.53677
9.57	4.54434
9.58	4.5371
9.59	4.5371
9.6	4.53348
9.61	4.53809
9.62	4.53052
9.63	4.53381
9.64	4.52855
9.65	4.53381
9.66	4.53118
9.67	4.52723
9.68	4.52888
9.69	4.53052
9.7	4.51967
9.71	4.52691
9.72	4.51769
9.73	4.52888
9.74	4.52625
9.75	4.52
9.76	4.52493
9.77	4.51473
9.78	4.51342
9.79	4.51572
9.8	4.51473
9.81	4.51638
9.82	4.51013
9.83	4.50815
9.84	4.52164
9.85	4.50783
9.86	4.51704
9.87	4.51375
9.88	4.51309
9.89	4.51737
9.9	4.51375
9.91	4.5075
9.92	4.50783
9.93	4.51276
9.94	4.5098
9.95	4.50914
9.96	4.51144
9.97	4.51243
9.98	4.50914
9.99	4.50454
10	4.50026
10.01	4.51276
10.02	4.50783
10.03	4.49763
10.04	4.50026
10.05	4.50421
10.06	4.50552
10.07	4.50158
10.08	4.49467
10.09	4.49631
10.1	4.5075
10.11	4.51276
10.12	4.49894
10.13	4.50815
10.14	4.49861
10.15	4.48809
10.16	4.49269
10.17	4.4973
10.18	4.49829
10.19	4.47855
10.2	4.49434
10.21	4.49269
10.22	4.48973
10.23	4.48052
10.24	4.47559
10.25	4.48611
10.26	4.48381
10.27	4.48019
10.28	4.48809
10.29	4.48381
10.3	4.48513
10.31	4.47592
10.32	4.4621
10.33	4.46539
10.34	4.47
10.35	4.46177
10.36	4.47197
10.37	4.47263
10.38	4.46802
10.39	4.46276
10.4	4.45848
10.41	4.46309
10.42	4.47657
10.43	4.47131
10.44	4.47394
10.45	4.46572
10.46	4.47361
10.47	4.46967
10.48	4.4723
10.49	4.46506
10.5	4.45519
10.51	4.45914
10.52	4.46375
10.53	4.47065
10.54	4.46638
10.55	4.47065
10.56	4.46901
10.57	4.45388
10.58	4.44467
10.59	4.45684
10.6	4.4519
10.61	4.44039
10.62	4.45059
10.63	4.45914
10.64	4.46276
10.65	4.44697
10.66	4.44828
10.67	4.44467
10.68	4.45881
10.69	4.45651
10.7	4.44927
10.71	4.45026
10.72	4.44302
10.73	4.44532
10.74	4.45124
10.75	4.43545
10.76	4.4519
10.77	4.44171
10.78	4.43381
10.79	4.42822
10.8	4.42032
10.81	4.43381
10.82	4.43151
10.83	4.43085
10.84	4.44467
10.85	4.43776
10.86	4.42756
10.87	4.43282
10.88	4.43118
10.89	4.43677
10.9	4.44269
10.91	4.43611
10.92	4.44335
10.93	4.43842
10.94	4.43118
10.95	4.44006
10.96	4.43414
10.97	4.43545
10.98	4.43513
10.99	4.41966
11	4.4371
11.01	4.41276
11.02	4.42723
11.03	4.42953
11.04	4.43249
11.05	4.42624
11.06	4.4269
11.07	4.42427
11.08	4.41506
11.09	4.41802
11.1	4.40815
11.11	4.42032
11.12	4.41374
11.13	4.41013
11.14	4.41243
11.15	4.42032
11.16	4.40026
11.17	4.41078
11.18	4.40355
11.19	4.3996
11.2	4.41309
11.21	4.41473
11.22	4.40453
11.23	4.41111
11.24	4.40947
11.25	4.40881
11.26	4.40618
11.27	4.42131
11.28	4.42624
11.29	4.41309
11.3	4.40848
11.31	4.41638
11.32	4.40947
11.33	4.41243
11.34	4.39302
11.35	4.40387
11.36	4.3996
11.37	4.38907
11.38	4.39466
11.39	4.40848
11.4	4.4098
11.41	4.40289
11.42	4.39894
11.43	4.40355
11.44	4.39532
11.45	4.39795
11.46	4.37098
11.47	4.38315
11.48	4.40256
11.49	4.39434
11.5	4.38973
11.51	4.39598
11.52	4.39368
11.53	4.4042
11.54	4.40059
11.55	4.3848
11.56	4.39795
11.57	4.40815
11.58	4.39302
11.59	4.3894
11.6	4.38743
11.61	4.39137
11.62	4.40026
11.63	4.39466
11.64	4.39203
11.65	4.38216
11.66	4.3917
11.67	4.38019
11.68	4.38315
11.69	4.36901
11.7	4.38874
11.71	4.38841
11.72	4.38545
11.73	4.38118
11.74	4.38907
11.75	4.38414
11.76	4.37098
11.77	4.3769
11.78	4.38315
11.79	4.37855
11.8	4.38085
11.81	4.36637
11.82	4.37295
11.83	4.37493
11.84	4.37427
11.85	4.3723
11.86	4.38052
11.87	4.37427
11.88	4.36868
11.89	4.38578
11.9	4.38216
11.91	4.3894
11.92	4.39466
11.93	4.37986
11.94	4.36966
11.95	4.37723
11.96	4.3769
11.97	4.37427
11.98	4.38447
11.99	4.37953
12	4.36835
12.01	4.3644
12.02	4.3723
12.03	4.37361
12.04	4.38973
12.05	4.3917
12.06	4.38677
12.07	4.38183
12.08	4.36637
12.09	4.37295
12.1	4.36012
12.11	4.37032
12.12	4.38414
12.13	4.36868
12.14	4.36506
12.15	4.36604
12.16	4.3723
12.17	4.36604
12.18	4.37361
12.19	4.36539
12.2	4.3667
12.21	4.36177
12.22	4.36374
12.23	4.37855
12.24	4.37361
12.25	4.37328
12.26	4.36637
12.27	4.35387
12.28	4.35618
12.29	4.36802
12.3	4.37065
12.31	4.34697
12.32	4.35256
12.33	4.35519
12.34	4.35848
12.35	4.35552
12.36	4.35091
12.37	4.34006
12.38	4.34269
12.39	4.35322
12.4	4.34499
12.41	4.33611
12.42	4.35354
12.43	4.33085
12.44	4.3417
12.45	4.3496
12.46	4.34861
12.47	4.35519
12.48	4.35223
12.49	4.35651
12.5	4.35256
12.51	4.36111
12.52	4.33874
12.53	4.34039
12.54	4.33512
12.55	4.33545
12.56	4.34795
12.57	4.34302
12.58	4.33973
12.59	4.33118
12.6	4.32624
12.61	4.34993
12.62	4.35058
12.63	4.344
12.64	4.34236
12.65	4.34269
12.66	4.35091
12.67	4.35354
12.68	4.34466
12.69	4.35486
12.7	4.34433
12.71	4.35091
12.72	4.34532
12.73	4.3394
12.74	4.3371
12.75	4.33841
12.76	4.33545
12.77	4.33381
12.78	4.32394
12.79	4.33841
12.8	4.34565
12.81	4.3394
12.82	4.33085
12.83	4.31966
12.84	4.33381
12.85	4.33282
12.86	4.34203
12.87	4.33052
12.88	4.33775
12.89	4.34104
12.9	4.3269
12.91	4.32854
12.92	4.33677
12.93	4.32164
12.94	4.3167
12.95	4.32328
12.96	4.32032
12.97	4.32558
12.98	4.33348
12.99	4.32723
13	4.32986
13.01	4.32164
13.02	4.31703
13.03	4.31736
13.04	4.31111
13.05	4.32361
13.06	4.30617
13.07	4.32262
13.08	4.32657
13.09	4.32262
13.1	4.33414
13.11	4.33874
13.12	4.32821
13.13	4.32032
13.14	4.32493
13.15	4.31999
13.16	4.32591
13.17	4.32196
13.18	4.31802
13.19	4.31769
13.2	4.31539
13.21	4.30782
13.22	4.33052
13.23	4.33183
13.24	4.33479
13.25	4.32756
13.26	4.33282
13.27	4.33249
13.28	4.32756
13.29	4.32164
13.3	4.31374
13.31	4.31769
13.32	4.31407
13.33	4.31374
13.34	4.3144
13.35	4.31177
13.36	4.30946
13.37	4.32229
13.38	4.31604
13.39	4.31769
13.4	4.31769
13.41	4.3144
13.42	4.3144
13.43	4.31703
13.44	4.3167
13.45	4.31078
13.46	4.3042
13.47	4.30519
13.48	4.31933
13.49	4.30848
13.5	4.31835
13.51	4.31703
13.52	4.31177
13.53	4.30256
13.54	4.30815
13.55	4.31539
13.56	4.30749
13.57	4.30914
13.58	4.31078
13.59	4.30914
13.6	4.29861
13.61	4.31308
13.62	4.3042
13.63	4.30914
13.64	4.3269
13.65	4.3167
13.66	4.30716
13.67	4.31144
13.68	4.31637
13.69	4.3042
13.7	4.29729
13.71	4.30716
13.72	4.31177
13.73	4.29992
13.74	4.29927
13.75	4.30321
13.76	4.31637
13.77	4.3167
13.78	4.3042
13.79	4.2917
13.8	4.3065
13.81	4.29894
13.82	4.29236
13.83	4.30256
13.84	4.29927
13.85	4.30387
13.86	4.2996
13.87	4.30815
13.88	4.30552
13.89	4.30091
13.9	4.30124
13.91	4.29631
13.92	4.29532
13.93	4.30058
13.94	4.29236
13.95	4.29203
13.96	4.30486
13.97	4.3065
13.98	4.29992
13.99	4.29335
14	4.29203
14.01	4.2894
14.02	4.29861
14.03	4.30585
14.04	4.30387
14.05	4.30025
14.06	4.30552
14.07	4.30387
14.08	4.30354
14.09	4.29992
14.1	4.28874
14.11	4.29565
14.12	4.29927
14.13	4.29927
14.14	4.29466
14.15	4.29532
14.16	4.29631
14.17	4.3019
14.18	4.3019
14.19	4.29302
14.2	4.29367
14.21	4.3019
14.22	4.30354
14.23	4.28907
14.24	4.30486
14.25	4.3065
14.26	4.29466
14.27	4.29137
14.28	4.29236
14.29	4.29302
14.3	4.29236
14.31	4.28611
14.32	4.28841
14.33	4.29565
14.34	4.2769
14.35	4.29269
14.36	4.29433
14.37	4.28578
14.38	4.28479
14.39	4.28052
14.4	4.27854
14.41	4.28742
14.42	4.29565
14.43	4.27295
14.44	4.27788
14.45	4.27756
14.46	4.27591
14.47	4.27229
14.48	4.27986
14.49	4.28413
14.5	4.29433
14.51	4.27657
14.52	4.28512
14.53	4.28446
14.54	4.28446
14.55	4.27821
14.56	4.27098
14.57	4.28348
14.58	4.27657
14.59	4.28611
14.6	4.28183
14.61	4.27065
14.62	4.27394
14.63	4.28052
14.64	4.28479
14.65	4.27262
14.66	4.28775
14.67	4.29433
14.68	4.28446
14.69	4.27427
14.7	4.27821
14.71	4.26966
14.72	4.28413
14.73	4.29104
14.74	4.28973
14.75	4.27953
14.76	4.27394
14.77	4.28183
14.78	4.27492
14.79	4.28216
14.8	4.28249
14.81	4.27591
14.82	4.27262
14.83	4.26802
14.84	4.28446
14.85	4.28808
14.86	4.28677
14.87	4.27295
14.88	4.28611
14.89	4.2894
14.9	4.28084
14.91	4.2713
14.92	4.27459
14.93	4.26966
14.94	4.26703
14.95	4.29532
14.96	4.28874
14.97	4.27163
14.98	4.28216
14.99	4.27427
15	4.27788
15.01	4.269
15.02	4.2644
15.03	4.2644
15.04	4.26571
15.05	4.27361
15.06	4.27032
15.07	4.2588
15.08	4.2713
15.09	4.26802
15.1	4.26769
15.11	4.27821
15.12	4.26933
15.13	4.26177
15.14	4.26012
15.15	4.27953
15.16	4.26933
15.17	4.2667
15.18	4.27032
15.19	4.27854
15.2	4.27887
15.21	4.27098
15.22	4.2792
15.23	4.26736
15.24	4.26999
15.25	4.27196
15.26	4.26736
15.27	4.27394
15.28	4.25913
15.29	4.26867
15.3	4.2667
15.31	4.26571
15.32	4.26571
15.33	4.25354
15.34	4.26144
15.35	4.27229
15.36	4.269
15.37	4.27624
15.38	4.26802
15.39	4.26933
15.4	4.26966
15.41	4.25946
15.42	4.26177
15.43	4.26209
15.44	4.27032
15.45	4.27394
15.46	4.27328
15.47	4.26966
15.48	4.24762
15.49	4.26275
15.5	4.27032
15.51	4.2644
15.52	4.26012
15.53	4.25979
15.54	4.26736
15.55	4.25782
15.56	4.26275
15.57	4.2644
15.58	4.26637
15.59	4.26637
15.6	4.25223
15.61	4.25255
15.62	4.26111
15.63	4.25913
15.64	4.27098
15.65	4.26111
15.66	4.25782
15.67	4.25782
15.68	4.26144
15.69	4.25124
15.7	4.26242
15.71	4.26275
15.72	4.25091
15.73	4.24959
15.74	4.25157
15.75	4.26209
15.76	4.26867
15.77	4.26571
15.78	4.26505
15.79	4.2713
15.8	4.26407
15.81	4.25387
15.82	4.26078
15.83	4.25848
15.84	4.25913
15.85	4.25617
15.86	4.24565
15.87	4.26209
15.88	4.24663
15.89	4.25749
15.9	4.25749
15.91	4.269
15.92	4.269
15.93	4.25749
15.94	4.25255
15.95	4.25848
15.96	4.25354
15.97	4.25124
15.98	4.25848
15.99	4.25617
16	4.25223
16.01	4.24433
16.02	4.25223
16.03	4.25584
16.04	4.24565
16.05	4.25486
16.06	4.25091
16.07	4.25453
16.08	4.25552
16.09	4.24729
16.1	4.26144
16.11	4.24795
16.12	4.25815
16.13	4.24663
16.14	4.25683
16.15	4.25552
16.16	4.2519
16.17	4.23446
16.18	4.26473
16.19	4.24696
16.2	4.25848
16.21	4.2588
16.22	4.24367
16.23	4.24926
16.24	4.2565
16.25	4.25223
16.26	4.24926
16.27	4.25058
16.28	4.25223
16.29	4.25157
16.3	4.2519
16.31	4.2565
16.32	4.24926
16.33	4.23413
16.34	4.24466
16.35	4.23841
16.36	4.23808
16.37	4.23841
16.38	4.24433
16.39	4.24334
16.4	4.24466
16.41	4.25913
16.42	4.2417
16.43	4.24532
16.44	4.23611
16.45	4.24828
16.46	4.24959
16.47	4.25486
16.48	4.24959
16.49	4.25354
16.5	4.25091
16.51	4.24104
16.52	4.23709
16.53	4.24861
16.54	4.25288
16.55	4.24828
16.56	4.25782
16.57	4.25124
16.58	4.25025
16.59	4.24598
16.6	4.24203
16.61	4.24828
16.62	4.24071
16.63	4.25124
16.64	4.25354
16.65	4.24959
16.66	4.2542
16.67	4.26111
16.68	4.25387
16.69	4.25223
16.7	4.26045
16.71	4.25124
16.72	4.24894
16.73	4.24828
16.74	4.25519
16.75	4.24334
16.76	4.2463
16.77	4.25584
16.78	4.26505
16.79	4.24729
16.8	4.25749
16.81	4.244
16.82	4.23347
16.83	4.24532
16.84	4.23874
16.85	4.24532
16.86	4.22854
16.87	4.24499
16.88	4.23973
16.89	4.23512
16.9	4.25979
16.91	4.24565
16.92	4.23808
16.93	4.24301
16.94	4.23446
16.95	4.24992
16.96	4.24038
16.97	4.23578
16.98	4.2519
16.99	4.24466
17	4.244
17.01	4.2338
17.02	4.24301
17.03	4.24433
17.04	4.23907
17.05	4.24795
17.06	4.24466
17.07	4.24466
17.08	4.24104
17.09	4.2588
17.1	4.25387
17.11	4.2338
17.12	4.244
17.13	4.23545
17.14	4.22887
17.15	4.23611
17.16	4.22591
17.17	4.2292
17.18	4.23676
17.19	4.23084
17.2	4.22821
17.21	4.244
17.22	4.25288
17.23	4.244
17.24	4.24729
17.25	4.22624
17.26	4.23644
17.27	4.23973
17.28	4.23644
17.29	4.23512
17.3	4.24334
17.31	4.24499
17.32	4.24959
17.33	4.25354
17.34	4.24203
17.35	4.2338
17.36	4.23479
17.37	4.23676
17.38	4.23315
17.39	4.24696
17.4	4.23183
17.41	4.22821
17.42	4.23315
17.43	4.22295
17.44	4.24269
17.45	4.2519
17.46	4.24005
17.47	4.22459
17.48	4.24005
17.49	4.23183
17.5	4.22032
17.51	4.23249
17.52	4.2338
17.53	4.21999
17.54	4.23051
17.55	4.2338
17.56	4.23545
17.57	4.22394
17.58	4.2269
17.59	4.23413
17.6	4.23578
17.61	4.22361
17.62	4.23117
17.63	4.23742
17.64	4.23709
17.65	4.23347
17.66	4.23479
17.67	4.22953
17.68	4.22953
17.69	4.22788
17.7	4.22755
17.71	4.21604
17.72	4.22591
17.73	4.23347
17.74	4.23512
17.75	4.23347
17.76	4.22953
17.77	4.23084
17.78	4.23117
17.79	4.23644
17.8	4.22624
17.81	4.22657
17.82	4.22657
17.83	4.22262
17.84	4.21604
17.85	4.23545
17.86	4.23578
17.87	4.23512
17.88	4.23644
17.89	4.23216
17.9	4.22953
17.91	4.22525
17.92	4.22657
17.93	4.22854
17.94	4.22624
17.95	4.22361
17.96	4.22657
17.97	4.22722
17.98	4.24071
17.99	4.24236
18	4.22065
18.01	4.22229
18.02	4.23479
18.03	4.21966
18.04	4.23019
18.05	4.23051
18.06	4.22624
18.07	4.22558
18.08	4.23282
18.09	4.22394
18.1	4.21703
18.11	4.22591
18.12	4.22328
18.13	4.23413
18.14	4.22657
18.15	4.21571
18.16	4.22426
18.17	4.23051
18.18	4.22986
18.19	4.22525
18.2	4.21736
18.21	4.21801
18.22	4.22624
18.23	4.22755
18.24	4.21703
18.25	4.219
18.26	4.22032
18.27	4.22459
18.28	4.22624
18.29	4.22657
18.3	4.22821
18.31	4.21867
18.32	4.22262
18.33	4.21538
18.34	4.21834
18.35	4.2167
18.36	4.21703
18.37	4.21966
18.38	4.2167
18.39	4.22229
18.4	4.21111
18.41	4.22722
18.42	4.22163
18.43	4.22492
18.44	4.22459
18.45	4.21472
18.46	4.23084
18.47	4.22821
18.48	4.22986
18.49	4.22492
18.5	4.22426
18.51	4.22361
18.52	4.23315
18.53	4.22525
18.54	4.2269
18.55	4.22854
18.56	4.22624
18.57	4.22755
18.58	4.22426
18.59	4.22558
18.6	4.22295
18.61	4.21472
18.62	4.21604
18.63	4.22426
18.64	4.21538
18.65	4.22229
18.66	4.21604
18.67	4.20584
18.68	4.21637
18.69	4.23216
18.7	4.21703
18.71	4.21999
18.72	4.21736
18.73	4.21768
18.74	4.21999
18.75	4.22065
18.76	4.21637
18.77	4.21801
18.78	4.22065
18.79	4.22426
18.8	4.22295
18.81	4.22097
18.82	4.21736
18.83	4.23479
18.84	4.23019
18.85	4.21374
18.86	4.22097
18.87	4.22394
18.88	4.21966
18.89	4.21933
18.9	4.21637
18.91	4.21604
18.92	4.22426
18.93	4.22163
18.94	4.22097
18.95	4.19893
18.96	4.20683
18.97	4.21999
18.98	4.2213
18.99	4.21209
19	4.22262
19.01	4.21407
19.02	4.21341
19.03	4.21078
19.04	4.21867
19.05	4.24071
19.06	4.22558
19.07	4.20782
19.08	4.2088
19.09	4.20815
19.1	4.22821
19.11	4.21407
19.12	4.21999
19.13	4.22065
19.14	4.21834
19.15	4.21768
19.16	4.21407
19.17	4.21275
19.18	4.21111
19.19	4.21308
19.2	4.21111
19.21	4.21111
19.22	4.2065
19.23	4.21505
19.24	4.219
19.25	4.22788
19.26	4.22229
19.27	4.21571
19.28	4.21308
19.29	4.20354
19.3	4.21966
19.31	4.21637
19.32	4.21867
19.33	4.21045
19.34	4.20551
19.35	4.20617
19.36	4.21867
19.37	4.20222
19.38	4.20913
19.39	4.20551
19.4	4.20847
19.41	4.20749
19.42	4.21111
19.43	4.2144
19.44	4.21768
19.45	4.21538
19.46	4.22755
19.47	4.21505
19.48	4.22394
19.49	4.219
19.5	4.21604
19.51	4.21736
19.52	4.22262
19.53	4.22722
19.54	4.21538
19.55	4.22328
19.56	4.21341
19.57	4.2065
19.58	4.21703
19.59	4.22328
19.6	4.22525
19.61	4.21538
19.62	4.20979
19.63	4.219
19.64	4.20716
19.65	4.21308
19.66	4.21078
19.67	4.20617
19.68	4.19433
19.69	4.20453
19.7	4.21703
19.71	4.21768
19.72	4.22065
19.73	4.20913
19.74	4.19795
19.75	4.21275
19.76	4.2065
19.77	4.2088
19.78	4.21012
19.79	4.21275
19.8	4.21571
19.81	4.20782
19.82	4.20749
19.83	4.20321
19.84	4.20288
19.85	4.19433
19.86	4.20518
19.87	4.19433
19.88	4.2065
19.89	4.2144
19.9	4.20189
19.91	4.19038
19.92	4.2042
19.93	4.21505
19.94	4.20124
19.95	4.19564
19.96	4.2065
19.97	4.20847
19.98	4.20354
19.99	4.21472
20	4.19597
20.01	4.21078
20.02	4.19992
20.03	4.21242
20.04	4.2065
20.05	4.20354
20.06	4.20189
20.07	4.20979
20.08	4.20387
20.09	4.20387
20.1	4.21275
20.11	4.19236
20.12	4.21308
20.13	4.21275
20.14	4.20387
20.15	4.20815
20.16	4.2065
20.17	4.21538
20.18	4.21374
20.19	4.20518
20.2	4.20551
20.21	4.20288
20.22	4.1917
20.23	4.19532
20.24	4.21472
20.25	4.21176
20.26	4.2144
20.27	4.21703
20.28	4.21374
20.29	4.20683
20.3	4.20551
20.31	4.21078
20.32	4.20683
20.33	4.20189
20.34	4.20518
20.35	4.20847
20.36	4.20486
20.37	4.20913
20.38	4.21242
20.39	4.19762
20.4	4.20749
20.41	4.20551
20.42	4.19038
20.43	4.20946
20.44	4.18939
20.45	4.19861
20.46	4.20847
20.47	4.19828
20.48	4.20321
20.49	4.20979
20.5	4.20124
20.51	4.19926
20.52	4.21472
20.53	4.20749
20.54	4.21242
20.55	4.20091
20.56	4.20157
20.57	4.20716
20.58	4.19301
20.59	4.20354
20.6	4.20387
20.61	4.20486
20.62	4.20946
20.63	4.20124
20.64	4.21176
20.65	4.21078
20.66	4.20518
20.67	4.20486
20.68	4.20157
20.69	4.2042
20.7	4.20387
20.71	4.19795
20.72	4.19499
20.73	4.19367
20.74	4.19992
20.75	4.19236
20.76	4.2042
20.77	4.18347
20.78	4.19828
20.79	4.19071
20.8	4.18676
20.81	4.20222
20.82	4.20189
20.83	4.20222
20.84	4.18939
20.85	4.20354
20.86	4.194
20.87	4.194
20.88	4.19005
20.89	4.2042
20.9	4.1963
20.91	4.20617
20.92	4.20025
20.93	4.19729
20.94	4.19729
20.95	4.19071
20.96	4.19729
20.97	4.19828
20.98	4.19992
20.99	4.19992
21	4.19005
21.01	4.18643
21.02	4.20058
21.03	4.19499
21.04	4.19137
21.05	4.1917
21.06	4.19268
21.07	4.20288
21.08	4.19926
21.09	4.19663
21.1	4.20058
21.11	4.20354
21.12	4.20354
21.13	4.18972
21.14	4.18512
21.15	4.20025
21.16	4.18183
21.17	4.1917
21.18	4.21571
21.19	4.20288
21.2	4.19466
21.21	4.20288
21.22	4.20782
21.23	4.18939
21.24	4.18282
21.25	4.19597
21.26	4.21078
21.27	4.19564
21.28	4.19663
21.29	4.20946
21.3	4.19367
21.31	4.20584
21.32	4.1963
21.33	4.19367
21.34	4.20091
21.35	4.20354
21.36	4.1815
21.37	4.19203
21.38	4.18939
21.39	4.19861
21.4	4.20124
21.41	4.19268
21.42	4.19959
21.43	4.20716
21.44	4.19861
21.45	4.1963
21.46	4.19564
21.47	4.18314
21.48	4.20157
21.49	4.19926
21.5	4.1963
21.51	4.19729
21.52	4.19433
21.53	4.19663
21.54	4.19137
21.55	4.19104
21.56	4.20124
21.57	4.2144
21.58	4.20551
21.59	4.19203
21.6	4.19466
21.61	4.19729
21.62	4.18578
21.63	4.18939
21.64	4.19564
21.65	4.19696
21.66	4.19762
21.67	4.19071
21.68	4.20551
21.69	4.20847
21.7	4.1963
21.71	4.19992
21.72	4.20782
21.73	4.21242
21.74	4.19268
21.75	4.18479
21.76	4.20683
21.77	4.19532
21.78	4.20847
21.79	4.18808
21.8	4.19005
21.81	4.20222
21.82	4.2042
21.83	4.18742
21.84	4.194
21.85	4.18512
21.86	4.18676
21.87	4.19466
21.88	4.20683
21.89	4.19959
21.9	4.18216
21.91	4.18545
21.92	4.18578
21.93	4.17591
21.94	4.19367
21.95	4.19597
21.96	4.19696
21.97	4.19926
21.98	4.20255
21.99	4.19038
22	4.19367
22.01	4.20255
22.02	4.19301
22.03	4.19104
22.04	4.19992
22.05	4.19729
22.06	4.19137
22.07	4.20058
22.08	4.18084
22.09	4.19762
22.1	4.18413
22.11	4.2042
22.12	4.19696
22.13	4.19367
22.14	4.19532
22.15	4.20222
22.16	4.19861
22.17	4.18808
22.18	4.18446
22.19	4.18907
22.2	4.17887
22.21	4.19236
22.22	4.19564
22.23	4.18512
22.24	4.20025
22.25	4.18676
22.26	4.19334
22.27	4.17426
22.28	4.17689
22.29	4.194
22.3	4.18479
22.31	4.18676
22.32	4.18907
22.33	4.19466
22.34	4.18939
22.35	4.1917
22.36	4.20255
22.37	4.1792
22.38	4.19005
22.39	4.18775
22.4	4.19005
22.41	4.20058
22.42	4.20255
22.43	4.18578
22.44	4.1917
22.45	4.18216
22.46	4.17854
22.47	4.18939
22.48	4.18841
22.49	4.19466
22.5	4.1838
22.51	4.19236
22.52	4.20025
22.53	4.18775
22.54	4.18874
22.55	4.17755
22.56	4.19828
22.57	4.19466
22.58	4.19301
22.59	4.19104
22.6	4.18676
22.61	4.19597
22.62	4.19828
22.63	4.18907
22.64	4.19992
22.65	4.17953
22.66	4.18808
22.67	4.18314
22.68	4.18939
22.69	4.18643
22.7	4.19104
22.71	4.18742
22.72	4.19828
22.73	4.18446
22.74	4.19268
22.75	4.20551
22.76	4.18676
22.77	4.19038
22.78	4.18117
22.79	4.18084
22.8	4.18446
22.81	4.18709
22.82	4.18808
22.83	4.18578
22.84	4.17624
22.85	4.1861
22.86	4.18249
22.87	4.17328
22.88	4.18874
22.89	4.18808
22.9	4.17854
22.91	4.1861
22.92	4.18874
22.93	4.19992
22.94	4.18249
22.95	4.19038
22.96	4.18314
22.97	4.17525
22.98	4.18314
22.99	4.20321
23	4.19663
23.01	4.18841
23.02	4.19334
23.03	4.18742
23.04	4.19071
23.05	4.18775
23.06	4.18249
23.07	4.18939
23.08	4.18775
23.09	4.18841
23.1	4.18282
23.11	4.17953
23.12	4.18446
23.13	4.18479
23.14	4.17426
23.15	4.17426
23.16	4.20288
23.17	4.19433
23.18	4.19104
23.19	4.18479
23.2	4.18347
23.21	4.17887
23.22	4.18874
23.23	4.19104
23.24	4.17591
23.25	4.17624
23.26	4.18413
23.27	4.17689
23.28	4.18117
23.29	4.1792
23.3	4.19005
23.31	4.18808
23.32	4.1861
23.33	4.18808
23.34	4.19005
23.35	4.18578
23.36	4.17492
23.37	4.18643
23.38	4.19334
23.39	4.18709
23.4	4.16735
23.41	4.18051
23.42	4.18282
23.43	4.1861
23.44	4.18643
23.45	4.18808
23.46	4.18972
23.47	4.17689
23.48	4.17492
23.49	4.18018
23.5	4.17887
23.51	4.17591
23.52	4.17821
23.53	4.17887
23.54	4.20157
23.55	4.19137
23.56	4.18347
23.57	4.18347
23.58	4.18742
23.59	4.18709
23.6	4.18578
23.61	4.18216
23.62	4.1713
23.63	4.18117
23.64	4.17689
23.65	4.17985
23.66	4.17854
23.67	4.18314
23.68	4.17689
23.69	4.17788
23.7	4.17328
23.71	4.19729
23.72	4.17426
23.73	4.17031
23.74	4.17624
23.75	4.1838
23.76	4.17689
23.77	4.19104
23.78	4.18282
23.79	4.16078
23.8	4.16406
23.81	4.17262
23.82	4.16341
23.83	4.17985
23.84	4.18051
23.85	4.17624
23.86	4.17328
23.87	4.17262
23.88	4.18084
23.89	4.17953
23.9	4.17854
23.91	4.18479
23.92	4.17953
23.93	4.18117
23.94	4.17624
23.95	4.17229
23.96	4.17163
23.97	4.17755
23.98	4.17558
23.99	4.1815
24	4.18413
24.01	4.17262
24.02	4.1815
24.03	4.19762
24.04	4.17953
24.05	4.16966
24.06	4.17657
24.07	4.1713
24.08	4.17854
24.09	4.17788
24.1	4.17788
24.11	4.18709
24.12	4.1838
24.13	4.18512
24.14	4.18545
24.15	4.1838
24.16	4.18314
24.17	4.19433
24.18	4.18051
24.19	4.17985
24.2	4.17525
24.21	4.18183
24.22	4.18249
24.23	4.18709
24.24	4.18314
24.25	4.17657
24.26	4.17953
24.27	4.17558
24.28	4.16999
24.29	4.18907
24.3	4.17854
24.31	4.17722
24.32	4.17755
24.33	4.18841
24.34	4.17821
24.35	4.18479
24.36	4.18841
24.37	4.18446
24.38	4.18183
24.39	4.17854
24.4	4.19038
24.41	4.18479
24.42	4.17854
24.43	4.16768
24.44	4.16801
24.45	4.17426
24.46	4.17393
24.47	4.16735
24.48	4.1736
24.49	4.17328
24.5	4.16308
24.51	4.18479
24.52	4.18512
24.53	4.17854
24.54	4.16966
24.55	4.1736
24.56	4.16637
24.57	4.1736
24.58	4.17722
24.59	4.17459
24.6	4.17525
24.61	4.18545
24.62	4.16867
24.63	4.17229
24.64	4.17985
24.65	4.16966
24.66	4.17262
24.67	4.17525
24.68	4.18874
24.69	4.19071
24.7	4.16505
24.71	4.17591
24.72	4.17031
24.73	4.17393
24.74	4.1736
24.75	4.17393
24.76	4.18578
24.77	4.17821
24.78	4.18479
24.79	4.17887
24.8	4.16801
24.81	4.17328
24.82	4.17064
24.83	4.17064
24.84	4.17393
24.85	4.16176
24.86	4.17492
24.87	4.15683
24.88	4.17295
24.89	4.18183
24.9	4.17558
24.91	4.16834
24.92	4.16768
24.93	4.17328
24.94	4.17985
24.95	4.18512
24.96	4.16735
24.97	4.17492
24.98	4.17755
24.99	4.18446
25	4.194
25.01	4.18018
25.02	4.17163
25.03	4.19268
25.04	4.19071
25.05	4.17689
25.06	4.1736
25.07	4.18314
25.08	4.18216
25.09	4.17887
25.1	4.18413
25.11	4.16768
25.12	4.17163
25.13	4.1792
25.14	4.16999
25.15	4.17196
25.16	4.17755
25.17	4.1667
25.18	4.16834
25.19	4.18183
25.2	4.16703
25.21	4.16735
25.22	4.17229
25.23	4.17031
25.24	4.17755
25.25	4.17426
25.26	4.16176
25.27	4.17887
25.28	4.17328
25.29	4.17229
25.3	4.15716
25.31	4.15946
25.32	4.16308
25.33	4.17788
25.34	4.18808
25.35	4.17525
25.36	4.17591
25.37	4.16703
25.38	4.16242
25.39	4.1611
25.4	4.16933
25.41	4.16966
25.42	4.16439
25.43	4.17459
25.44	4.16703
25.45	4.17821
25.46	4.1565
25.47	4.17196
25.48	4.18249
25.49	4.16867
25.5	4.17722
25.51	4.1736
25.52	4.17821
25.53	4.17887
25.54	4.19762
25.55	4.18578
25.56	4.17229
25.57	4.17393
25.58	4.18051
25.59	4.16966
25.6	4.16505
25.61	4.17492
25.62	4.18084
25.63	4.16999
25.64	4.16834
25.65	4.17689
25.66	4.17591
25.67	4.16801
25.68	4.17031
25.69	4.16933
25.7	4.1713
25.71	4.1565
25.72	4.1736
25.73	4.17722
25.74	4.15683
25.75	4.1713
25.76	4.16078
25.77	4.16176
25.78	4.1792
25.79	4.17624
25.8	4.15518
25.81	4.169
25.82	4.16735
25.83	4.17262
25.84	4.17196
25.85	4.16308
25.86	4.15814
25.87	4.16176
25.88	4.1815
25.89	4.16834
25.9	4.16505
25.91	4.16768
25.92	4.169
25.93	4.16472
25.94	4.16045
25.95	4.15354
25.96	4.17163
25.97	4.16341
25.98	4.15979
25.99	4.16999
26	4.17953
26.01	4.17492
26.02	4.17558
26.03	4.16571
26.04	4.15683
26.05	4.16242
26.06	4.18742
26.07	4.16999
26.08	4.17459
26.09	4.17295
26.1	4.16439
26.11	4.17229
26.12	4.17657
26.13	4.18249
26.14	4.17328
26.15	4.17887
26.16	4.16867
26.17	4.16571
26.18	4.17426
26.19	4.16374
26.2	4.16308
26.21	4.16801
26.22	4.16735
26.23	4.16933
26.24	4.16834
26.25	4.16834
26.26	4.17031
26.27	4.17459
26.28	4.17229
26.29	4.1588
26.3	4.16703
26.31	4.1736
26.32	4.16045
26.33	4.17097
26.34	4.17657
26.35	4.17722
26.36	4.17328
26.37	4.17393
26.38	4.16472
26.39	4.1667
26.4	4.1713
26.41	4.1736
26.42	4.16999
26.43	4.17525
26.44	4.16604
26.45	4.169
26.46	4.17229
26.47	4.17525
26.48	4.16834
26.49	4.16999
26.5	4.17328
26.51	4.16439
26.52	4.17887
26.53	4.16604
26.54	4.16045
26.55	4.16505
26.56	4.1713
26.57	4.16703
26.58	4.17525
26.59	4.16374
26.6	4.15913
26.61	4.18216
26.62	4.18183
26.63	4.17558
26.64	4.16571
26.65	4.17558
26.66	4.17328
26.67	4.17097
26.68	4.17657
26.69	4.16867
26.7	4.16045
26.71	4.18282
26.72	4.1792
26.73	4.17097
26.74	4.1736
26.75	4.16735
26.76	4.17163
26.77	4.16406
26.78	4.18282
26.79	4.1838
26.8	4.18216
26.81	4.17426
26.82	4.18117
26.83	4.17163
26.84	4.17854
26.85	4.18051
26.86	4.17229
26.87	4.17985
26.88	4.18874
26.89	4.19564
26.9	4.18742
26.91	4.17163
26.92	4.18676
26.93	4.18413
26.94	4.18051
26.95	4.17624
26.96	4.16867
26.97	4.18249
26.98	4.18446
26.99	4.17788
27	4.16703
27.01	4.17953
27.02	4.16637
27.03	4.16472
27.04	4.1565
27.05	4.17229
27.06	4.19104
27.07	4.16242
27.08	4.17525
27.09	4.18051
27.1	4.16867
27.11	4.16801
27.12	4.1588
27.13	4.15979
27.14	4.16999
27.15	4.16538
27.16	4.15716
27.17	4.16045
27.18	4.16538
27.19	4.16538
27.2	4.1565
27.21	4.16801
27.22	4.16209
27.23	4.1542
27.24	4.1588
27.25	4.16406
27.26	4.15716
27.27	4.16768
27.28	4.18117
27.29	4.16045
27.3	4.15749
27.31	4.1565
27.32	4.17624
27.33	4.17492
27.34	4.17163
27.35	4.16834
27.36	4.16176
27.37	4.15979
27.38	4.14959
27.39	4.1565
27.4	4.16538
27.41	4.16374
27.42	4.16637
27.43	4.16637
27.44	4.1611
27.45	4.17064
27.46	4.16341
27.47	4.16999
27.48	4.16538
27.49	4.16966
27.5	4.16933
27.51	4.16045
27.52	4.1713
27.53	4.17295
27.54	4.17821
27.55	4.16834
27.56	4.16143
27.57	4.17163
27.58	4.1838
27.59	4.17163
27.6	4.1713
27.61	4.17031
27.62	4.16735
27.63	4.1565
27.64	4.16308
27.65	4.16966
27.66	4.16867
27.67	4.18479
27.68	4.18084
27.69	4.1838
27.7	4.1792
27.71	4.17229
27.72	4.16604
27.73	4.16374
27.74	4.16505
27.75	4.15716
27.76	4.15518
27.77	4.15222
27.78	4.15255
27.79	4.16308
27.8	4.15387
27.81	4.16439
27.82	4.15814
27.83	4.15124
27.84	4.15255
27.85	4.15452
27.86	4.16867
27.87	4.1861
27.88	4.17459
27.89	4.15716
27.9	4.16374
27.91	4.16867
27.92	4.16308
27.93	4.15354
27.94	4.16637
27.95	4.1611
27.96	4.15617
27.97	4.15683
27.98	4.16078
27.99	4.15946
28	4.16045
28.01	4.1588
28.02	4.16012
28.03	4.15814
28.04	4.14959
28.05	4.16439
28.06	4.15551
28.07	4.16176
28.08	4.16374
28.09	4.15189
28.1	4.15321
28.11	4.15551
28.12	4.15189
28.13	4.16078
28.14	4.16045
28.15	4.16143
28.16	4.14466
28.17	4.16439
28.18	4.16604
28.19	4.16275
28.2	4.15913
28.21	4.15781
28.22	4.1611
28.23	4.15189
28.24	4.16505
28.25	4.16472
28.26	4.16604
28.27	4.16012
28.28	4.1611
28.29	4.16867
28.3	4.17097
28.31	4.16571
28.32	4.16801
28.33	4.17624
28.34	4.17229
28.35	4.15781
28.36	4.15518
28.37	4.15683
28.38	4.15387
28.39	4.15485
28.4	4.15518
28.41	4.15946
28.42	4.15058
28.43	4.15749
28.44	4.15781
28.45	4.15321
28.46	4.1667
28.47	4.16209
28.48	4.14893
28.49	4.14663
28.5	4.16275
28.51	4.16374
28.52	4.16637
28.53	4.16341
28.54	4.16209
28.55	4.15683
28.56	4.16341
28.57	4.16867
28.58	4.16768
28.59	4.15288
28.6	4.15485
28.61	4.15913
28.62	4.16209
28.63	4.16966
28.64	4.16143
28.65	4.15354
28.66	4.16176
28.67	4.15979
28.68	4.16374
28.69	4.16604
28.7	4.16999
28.71	4.16472
28.72	4.16999
28.73	4.17657
28.74	4.16999
28.75	4.16275
28.76	4.16571
28.77	4.17031
28.78	4.16505
28.79	4.169
28.8	4.17097
28.81	4.17196
28.82	4.17393
28.83	4.16703
28.84	4.15288
28.85	4.15452
28.86	4.15814
28.87	4.17722
28.88	4.16472
28.89	4.16472
28.9	4.16242
28.91	4.16768
28.92	4.16801
28.93	4.18084
28.94	4.15979
28.95	4.16637
28.96	4.16735
28.97	4.16801
28.98	4.16439
28.99	4.16538
29	4.16012
29.01	4.1588
29.02	4.16275
29.03	4.16374
29.04	4.15485
29.05	4.15716
29.06	4.15814
29.07	4.16703
29.08	4.15683
29.09	4.14663
29.1	4.17328
29.11	4.15518
29.12	4.15255
29.13	4.15288
29.14	4.14992
29.15	4.15222
29.16	4.14893
29.17	4.16012
29.18	4.15749
29.19	4.15518
29.2	4.15321
29.21	4.1588
29.22	4.14301
29.23	4.15485
29.24	4.15979
29.25	4.14564
29.26	4.15979
29.27	4.15518
29.28	4.1542
29.29	4.14334
29.3	4.15189
29.31	4.14959
29.32	4.14992
29.33	4.15321
29.34	4.15222
29.35	4.1417
29.36	4.14893
29.37	4.14729
29.38	4.15551
29.39	4.1565
29.4	4.14827
29.41	4.14696
29.42	4.1588
29.43	4.16308
29.44	4.15946
29.45	4.15781
29.46	4.16406
29.47	4.15452
29.48	4.15091
29.49	4.14795
29.5	4.15452
29.51	4.15913
29.52	4.15091
29.53	4.15551
29.54	4.1588
29.55	4.16374
29.56	4.15156
29.57	4.16735
29.58	4.15255
29.59	4.15847
29.6	4.15058
29.61	4.13841
29.62	4.15781
29.63	4.16505
29.64	4.16439
29.65	4.16143
29.66	4.14992
29.67	4.15091
29.68	4.15781
29.69	4.15979
29.7	4.15683
29.71	4.16801
29.72	4.1667
29.73	4.15354
29.74	4.15288
29.75	4.15387
29.76	4.15452
29.77	4.15354
29.78	4.15584
29.79	4.15584
29.8	4.16078
29.81	4.16374
29.82	4.1611
29.83	4.15979
29.84	4.16242
29.85	4.15321
29.86	4.14893
29.87	4.15781
29.88	4.15387
29.89	4.16735
29.9	4.15979
29.91	4.14334
29.92	4.15584
29.93	4.15518
29.94	4.15354
29.95	4.14696
29.96	4.14959
29.97	4.15255
29.98	4.14696
29.99	4.14992
30	4.15124
