"BIO-KINE ASCII FILE"
"_COMMENT"	"MOS-500 Spectrometer"
"_COMMENT"	"Kinetics measurement"
"_COMMENT"	"Y Unit : Volt,  X Unit : s"
"_COMMENT"	"Excitation wavelength : 380 nm"
"_COMMENT"	"Fentes bandwidth =  1 nm"
"_COMMENT"	"HV= 1000V"
"_COMMENT"	"Timebase  1 =  .01 s   5001 pts"
"_SFM"	"SFM-400 /S  Advanced mode"
"_SFM"	"Ratio : S1: 2.5, S2: 0, S3: 0, S4: 1"
"_SFM"	"Content : S1: , S2: , S3: , S4:"
"_SFM"	"Concentration : S1: , S2: , S3: , S4:"
"_SFM"	"Total volume : 209 µl  Flow : 3.5 mL/s"
"_SFM"	"Acquisition start :  10 ms before stop"
"_SFM"	"cuve=FC-15, s1=10 ml , s2=10 ml , s3=10 ml , s4=1.9 ml"
"_UNITX"	"s"
"_UNITY"	"Volt"
"_DELTAX"	0
"_DATA"
1e-300	4.45026
0.01	4.46375
0.02	4.45947
0.03	4.55552
0.04	4.65026
0.05	4.65454
0.06	4.72823
0.07	4.73316
0.08	4.71474
0.09	4.77856
0.1	4.71803
0.11	4.76803
0.12	4.74402
0.13	4.79533
0.14	4.79698
0.15	4.75027
0.16	4.7631
0.17	4.83152
0.18	4.81244
0.19	4.77922
0.2	4.8131
0.21	4.77823
0.22	4.80356
0.23	4.80224
0.24	4.83086
0.25	4.75718
0.26	4.73842
0.27	4.76343
0.28	4.82889
0.29	4.76507
0.3	4.79764
0.31	4.78119
0.32	4.80027
0.33	4.77954
0.34	4.7654
0.35	4.8506
0.36	4.81869
0.37	4.80751
0.38	4.78908
0.39	4.79468
0.4	4.80422
0.41	4.7654
0.42	4.79073
0.43	4.80191
0.44	4.76343
0.45	4.77593
0.46	4.78941
0.47	4.79599
0.48	4.74764
0.49	4.76968
0.5	4.7904
0.51	4.77658
0.52	4.79928
0.53	4.77954
0.54	4.74731
0.55	4.85882
0.56	4.82428
0.57	4.78316
0.58	4.76869
0.59	4.82066
0.6	4.79073
0.61	4.73941
0.62	4.75389
0.63	4.76935
0.64	4.79007
0.65	4.79501
0.66	4.7779
0.67	4.77461
0.68	4.75816
0.69	4.75652
0.7	4.73744
0.71	4.76737
0.72	4.77362
0.73	4.74895
0.74	4.7177
0.75	4.7325
0.76	4.74336
0.77	4.75356
0.78	4.73875
0.79	4.73053
0.8	4.72099
0.81	4.72099
0.82	4.71803
0.83	4.71375
0.84	4.7279
0.85	4.71342
0.86	4.72066
0.87	4.70586
0.88	4.69928
0.89	4.78514
0.9	4.79237
0.91	4.74796
0.92	4.73053
0.93	4.74303
0.94	4.72033
0.95	4.70684
0.96	4.67987
0.97	4.71935
0.98	4.73546
0.99	4.70454
1	4.69105
1.01	4.71638
1.02	4.74171
1.03	4.70619
1.04	4.70257
1.05	4.68579
1.06	4.71474
1.07	4.73185
1.08	4.73579
1.09	4.73316
1.1	4.70652
1.11	4.68546
1.12	4.72691
1.13	4.69895
1.14	4.70224
1.15	4.6654
1.16	4.68415
1.17	4.69895
1.18	4.69698
1.19	4.67757
1.2	4.68809
1.21	4.66737
1.22	4.69237
1.23	4.67362
1.24	4.7052
1.25	4.66803
1.26	4.67099
1.27	4.64599
1.28	4.64171
1.29	4.64928
1.3	4.68678
1.31	4.65882
1.32	4.64895
1.33	4.66803
1.34	4.66803
1.35	4.63678
1.36	4.64961
1.37	4.65948
1.38	4.62822
1.39	4.66375
1.4	4.65684
1.41	4.69731
1.42	4.62099
1.43	4.6723
1.44	4.67132
1.45	4.67198
1.46	4.6825
1.47	4.64697
1.48	4.67823
1.49	4.65059
1.5	4.67132
1.51	4.70257
1.52	4.64533
1.53	4.61013
1.54	4.64895
1.55	4.67
1.56	4.69862
1.57	4.66605
1.58	4.6552
1.59	4.6325
1.6	4.64829
1.61	4.64303
1.62	4.63217
1.63	4.62395
1.64	4.63086
1.65	4.64007
1.66	4.65717
1.67	4.64072
1.68	4.62263
1.69	4.64072
1.7	4.66967
1.71	4.67
1.72	4.59204
1.73	4.63217
1.74	4.64434
1.75	4.63086
1.76	4.61243
1.77	4.62
1.78	4.60882
1.79	4.62559
1.8	4.60092
1.81	4.57954
1.82	4.63118
1.83	4.58217
1.84	4.60783
1.85	4.58414
1.86	4.63612
1.87	4.61638
1.88	4.61178
1.89	4.62954
1.9	4.59533
1.91	4.62099
1.92	4.64434
1.93	4.60585
1.94	4.60947
1.95	4.60849
1.96	4.58776
1.97	4.57066
1.98	4.57822
1.99	4.62428
2	4.56046
2.01	4.58941
2.02	4.54171
2.03	4.59697
2.04	4.62658
2.05	4.65421
2.06	4.60553
2.07	4.53447
2.08	4.59928
2.09	4.61474
2.1	4.61474
2.11	4.59895
2.12	4.5996
2.13	4.59368
2.14	4.60684
2.15	4.55026
2.16	4.59368
2.17	4.5996
2.18	4.61079
2.19	4.60355
2.2	4.58645
2.21	4.54862
2.22	4.55717
2.23	4.55191
2.24	4.56539
2.25	4.60849
2.26	4.57888
2.27	4.56112
2.28	4.61408
2.29	4.60684
2.3	4.6052
2.31	4.59763
2.32	4.57822
2.33	4.56342
2.34	4.57296
2.35	4.59434
2.36	4.55914
2.37	4.60421
2.38	4.55092
2.39	4.54204
2.4	4.55092
2.41	4.57493
2.42	4.57526
2.43	4.5973
2.44	4.55651
2.45	4.5746
2.46	4.58283
2.47	4.52362
2.48	4.56572
2.49	4.5802
2.5	4.51276
2.51	4.54434
2.52	4.49401
2.53	4.55158
2.54	4.54895
2.55	4.49631
2.56	4.52592
2.57	4.53085
2.58	4.53875
2.59	4.56013
2.6	4.56177
2.61	4.56605
2.62	4.52296
2.63	4.49006
2.64	4.54006
2.65	4.52493
2.66	4.57493
2.67	4.56145
2.68	4.55684
2.69	4.55914
2.7	4.53644
2.71	4.53677
2.72	4.53283
2.73	4.53809
2.74	4.55223
2.75	4.54401
2.76	4.54138
2.77	4.49861
2.78	4.52493
2.79	4.55421
2.8	4.56112
2.81	4.53973
2.82	4.50256
2.83	4.53151
2.84	4.51144
2.85	4.50125
2.86	4.50454
2.87	4.49368
2.88	4.50914
2.89	4.51802
2.9	4.53973
2.91	4.53151
2.92	4.51572
2.93	4.53316
2.94	4.52131
2.95	4.50783
2.96	4.53809
2.97	4.54993
2.98	4.51901
2.99	4.5325
3	4.53151
3.01	4.48217
3.02	4.49105
3.03	4.51704
3.04	4.51835
3.05	4.52065
3.06	4.53447
3.07	4.5121
3.08	4.51309
3.09	4.51342
3.1	4.47855
3.11	4.53677
3.12	4.50618
3.13	4.52493
3.14	4.52427
3.15	4.50059
3.16	4.4973
3.17	4.49467
3.18	4.53941
3.19	4.5075
3.2	4.47986
3.21	4.45585
3.22	4.50289
3.23	4.50092
3.24	4.50256
3.25	4.47164
3.26	4.52296
3.27	4.48217
3.28	4.48282
3.29	4.46539
3.3	4.47361
3.31	4.44105
3.32	4.47131
3.33	4.46802
3.34	4.4894
3.35	4.49533
3.36	4.46539
3.37	4.45881
3.38	4.48315
3.39	4.46276
3.4	4.4519
3.41	4.49039
3.42	4.53414
3.43	4.51605
3.44	4.48414
3.45	4.46934
3.46	4.49335
3.47	4.47329
3.48	4.46342
3.49	4.495
3.5	4.52789
3.51	4.5246
3.52	4.48546
3.53	4.42756
3.54	4.4473
3.55	4.42295
3.56	4.45552
3.57	4.46967
3.58	4.48184
3.59	4.45651
3.6	4.48973
3.61	4.4894
3.62	4.45388
3.63	4.44171
3.64	4.43611
3.65	4.44664
3.66	4.4621
3.67	4.44072
3.68	4.4598
3.69	4.46473
3.7	4.47625
3.71	4.44796
3.72	4.47822
3.73	4.4848
3.74	4.4575
3.75	4.46605
3.76	4.42855
3.77	4.44203
3.78	4.44763
3.79	4.46638
3.8	4.47986
3.81	4.4348
3.82	4.44302
3.83	4.46539
3.84	4.44335
3.85	4.44335
3.86	4.44993
3.87	4.45651
3.88	4.41999
3.89	4.45388
3.9	4.47493
3.91	4.4519
3.92	4.44138
3.93	4.46473
3.94	4.44434
3.95	4.4371
3.96	4.45289
3.97	4.3917
3.98	4.4167
3.99	4.43019
4	4.44467
4.01	4.41341
4.02	4.3996
4.03	4.42822
4.04	4.3871
4.05	4.4394
4.06	4.44828
4.07	4.41868
4.08	4.42065
4.09	4.46177
4.1	4.43217
4.11	4.43874
4.12	4.44993
4.13	4.41802
4.14	4.40059
4.15	4.3894
4.16	4.41868
4.17	4.41013
4.18	4.43447
4.19	4.45388
4.2	4.44993
4.21	4.4269
4.22	4.40091
4.23	4.42559
4.24	4.38841
4.25	4.41703
4.26	4.40585
4.27	4.37789
4.28	4.47131
4.29	4.45223
4.3	4.39236
4.31	4.41045
4.32	4.41473
4.33	4.40848
4.34	4.39203
4.35	4.42592
4.36	4.41111
4.37	4.41341
4.38	4.40881
4.39	4.41703
4.4	4.40815
4.41	4.37493
4.42	4.3894
4.43	4.38545
4.44	4.37855
4.45	4.41341
4.46	4.41999
4.47	4.43513
4.48	4.39598
4.49	4.41966
4.5	4.4394
4.51	4.41407
4.52	4.41638
4.53	4.4167
4.54	4.37887
4.55	4.38578
4.56	4.38151
4.57	4.42657
4.58	4.4042
4.59	4.40815
4.6	4.41276
4.61	4.38776
4.62	4.42756
4.63	4.41374
4.64	4.38414
4.65	4.37526
4.66	4.41045
4.67	4.40585
4.68	4.36473
4.69	4.39697
4.7	4.39894
4.71	4.39236
4.72	4.39499
4.73	4.40091
4.74	4.38677
4.75	4.38677
4.76	4.37953
4.77	4.39664
4.78	4.40585
4.79	4.3894
4.8	4.39499
4.81	4.38052
4.82	4.38611
4.83	4.35058
4.84	4.37065
4.85	4.3519
4.86	4.37032
4.87	4.3621
4.88	4.36966
4.89	4.35651
4.9	4.34006
4.91	4.39006
4.92	4.38841
4.93	4.3769
4.94	4.35618
4.95	4.35552
4.96	4.37131
4.97	4.38282
4.98	4.39466
4.99	4.34795
5	4.38381
5.01	4.33414
5.02	4.37624
5.03	4.38118
5.04	4.38644
5.05	4.34697
5.06	4.36966
5.07	4.35058
5.08	4.35914
5.09	4.39532
5.1	4.36111
5.11	4.3917
5.12	4.34368
5.13	4.34203
5.14	4.34664
5.15	4.3723
5.16	4.4042
5.17	4.3917
5.18	4.35618
5.19	4.34499
5.2	4.38019
5.21	4.3371
5.22	4.32854
5.23	4.36802
5.24	4.34433
5.25	4.32887
5.26	4.34203
5.27	4.32427
5.28	4.32098
5.29	4.33315
5.3	4.33414
5.31	4.37131
5.32	4.35223
5.33	4.32854
5.34	4.35256
5.35	4.36243
5.36	4.39631
5.37	4.38381
5.38	4.34433
5.39	4.30354
5.4	4.31769
5.41	4.33118
5.42	4.33216
5.43	4.34269
5.44	4.36637
5.45	4.3644
5.46	4.34927
5.47	4.35453
5.48	4.33019
5.49	4.33973
5.5	4.33907
5.51	4.34137
5.52	4.34302
5.53	4.34039
5.54	4.31933
5.55	4.34236
5.56	4.3371
5.57	4.3496
5.58	4.32394
5.59	4.30387
5.6	4.33545
5.61	4.36144
5.62	4.34795
5.63	4.35256
5.64	4.31045
5.65	4.34795
5.66	4.35651
5.67	4.34762
5.68	4.31012
5.69	4.32164
5.7	4.34466
5.71	4.3065
5.72	4.29532
5.73	4.32887
5.74	4.30256
5.75	4.34861
5.76	4.36341
5.77	4.30552
5.78	4.33019
5.79	4.32525
5.8	4.33249
5.81	4.32032
5.82	4.3394
5.83	4.3246
5.84	4.31473
5.85	4.30354
5.86	4.29696
5.87	4.33052
5.88	4.32493
5.89	4.35256
5.9	4.31835
5.91	4.34664
5.92	4.35354
5.93	4.31012
5.94	4.31506
5.95	4.31966
5.96	4.31933
5.97	4.28315
5.98	4.29335
5.99	4.31637
6	4.30354
6.01	4.31242
6.02	4.32821
6.03	4.25617
6.04	4.31012
6.05	4.30979
6.06	4.32361
6.07	4.31177
6.08	4.31835
6.09	4.29565
6.1	4.34137
6.11	4.34993
6.12	4.30617
6.13	4.31473
6.14	4.33545
6.15	4.30848
6.16	4.29729
6.17	4.3315
6.18	4.31867
6.19	4.3065
6.2	4.3144
6.21	4.28611
6.22	4.26966
6.23	4.31341
6.24	4.31045
6.25	4.27854
6.26	4.29565
6.27	4.29006
6.28	4.29269
6.29	4.3292
6.3	4.27657
6.31	4.30486
6.32	4.28381
6.33	4.30848
6.34	4.27854
6.35	4.26374
6.36	4.26012
6.37	4.27032
6.38	4.29532
6.39	4.294
6.4	4.29038
6.41	4.30058
6.42	4.24696
6.43	4.29729
6.44	4.30782
6.45	4.28315
6.46	4.31604
6.47	4.30683
6.48	4.28808
6.49	4.28512
6.5	4.29565
6.51	4.28282
6.52	4.25683
6.53	4.29269
6.54	4.31111
6.55	4.30585
6.56	4.28611
6.57	4.27163
6.58	4.30091
6.59	4.32427
6.6	4.29663
6.61	4.28677
6.62	4.25848
6.63	4.26834
6.64	4.3246
6.65	4.30683
6.66	4.27854
6.67	4.28348
6.68	4.30321
6.69	4.28611
6.7	4.28709
6.71	4.26966
6.72	4.23808
6.73	4.29565
6.74	4.31144
6.75	4.32328
6.76	4.2542
6.77	4.24137
6.78	4.29071
6.79	4.30223
6.8	4.29861
6.81	4.25288
6.82	4.28446
6.83	4.27887
6.84	4.29663
6.85	4.26177
6.86	4.25387
6.87	4.28545
6.88	4.25519
6.89	4.31308
6.9	4.26374
6.91	4.24828
6.92	4.26341
6.93	4.28117
6.94	4.294
6.95	4.25716
6.96	4.31539
6.97	4.26505
6.98	4.29137
6.99	4.22953
7	4.27295
7.01	4.25913
7.02	4.26275
7.03	4.27953
7.04	4.28446
7.05	4.26637
7.06	4.24334
7.07	4.23907
7.08	4.26637
7.09	4.27657
7.1	4.25683
7.11	4.25519
7.12	4.2394
7.13	4.2338
7.14	4.25223
7.15	4.25848
7.16	4.26242
7.17	4.26078
7.18	4.26111
7.19	4.23808
7.2	4.24433
7.21	4.26012
7.22	4.21472
7.23	4.24203
7.24	4.17492
7.25	4.26834
7.26	4.29762
7.27	4.26769
7.28	4.2463
7.29	4.23019
7.3	4.26933
7.31	4.28973
7.32	4.25058
7.33	4.30749
7.34	4.21308
7.35	4.26177
7.36	4.25782
7.37	4.23249
7.38	4.2519
7.39	4.24203
7.4	4.2292
7.41	4.2315
7.42	4.25584
7.43	4.29269
7.44	4.24203
7.45	4.24137
7.46	4.2667
7.47	4.29104
7.48	4.2269
7.49	4.2667
7.5	4.23019
7.51	4.23742
7.52	4.27624
7.53	4.24104
7.54	4.2269
7.55	4.22394
7.56	4.26703
7.57	4.22624
7.58	4.219
7.59	4.21176
7.6	4.20453
7.61	4.21999
7.62	4.23644
7.63	4.25913
7.64	4.24959
7.65	4.22558
7.66	4.23973
7.67	4.24466
7.68	4.26769
7.69	4.23973
7.7	4.23282
7.71	4.25058
7.72	4.24071
7.73	4.23841
7.74	4.22986
7.75	4.22163
7.76	4.2088
7.77	4.23183
7.78	4.22821
7.79	4.22755
7.8	4.22591
7.81	4.21308
7.82	4.19466
7.83	4.2065
7.84	4.18972
7.85	4.24071
7.86	4.22755
7.87	4.23019
7.88	4.23644
7.89	4.20913
7.9	4.22295
7.91	4.2338
7.92	4.23512
7.93	4.21143
7.94	4.22426
7.95	4.21538
7.96	4.21604
7.97	4.20124
7.98	4.20189
7.99	4.2269
8	4.20321
8.01	4.21768
8.02	4.21111
8.03	4.22821
8.04	4.26275
8.05	4.21242
8.06	4.21703
8.07	4.19893
8.08	4.21933
8.09	4.24236
8.1	4.22854
8.11	4.2042
8.12	4.2088
8.13	4.21176
8.14	4.21966
8.15	4.24433
8.16	4.23183
8.17	4.219
8.18	4.24367
8.19	4.2269
8.2	4.18446
8.21	4.23808
8.22	4.23315
8.23	4.21275
8.24	4.2394
8.25	4.22394
8.26	4.23019
8.27	4.23216
8.28	4.19959
8.29	4.22624
8.3	4.24598
8.31	4.1861
8.32	4.17755
8.33	4.21242
8.34	4.23808
8.35	4.24959
8.36	4.20815
8.37	4.19433
8.38	4.20453
8.39	4.19828
8.4	4.22821
8.41	4.17722
8.42	4.22821
8.43	4.20518
8.44	4.20486
8.45	4.18084
8.46	4.22558
8.47	4.23117
8.48	4.22854
8.49	4.22394
8.5	4.2065
8.51	4.20551
8.52	4.23051
8.53	4.24598
8.54	4.2315
8.55	4.20584
8.56	4.24663
8.57	4.21374
8.58	4.17525
8.59	4.20518
8.6	4.19301
8.61	4.20058
8.62	4.23249
8.63	4.20387
8.64	4.17887
8.65	4.19696
8.66	4.20913
8.67	4.20255
8.68	4.19367
8.69	4.17295
8.7	4.17689
8.71	4.24038
8.72	4.2167
8.73	4.22196
8.74	4.2042
8.75	4.17689
8.76	4.16308
8.77	4.19729
8.78	4.2144
8.79	4.18939
8.8	4.16867
8.81	4.21242
8.82	4.22262
8.83	4.20255
8.84	4.20584
8.85	4.16604
8.86	4.20387
8.87	4.2042
8.88	4.21242
8.89	4.16571
8.9	4.1667
8.91	4.15781
8.92	4.13545
8.93	4.17262
8.94	4.24762
8.95	4.18512
8.96	4.21176
8.97	4.19038
8.98	4.23019
8.99	4.21801
9	4.18479
9.01	4.17722
9.02	4.20453
9.03	4.22163
9.04	4.19433
9.05	4.16045
9.06	4.16801
9.07	4.18643
9.08	4.1815
9.09	4.15749
9.1	4.14827
9.11	4.18018
9.12	4.21834
9.13	4.20157
9.14	4.20321
9.15	4.16143
9.16	4.20288
9.17	4.21045
9.18	4.18051
9.19	4.20189
9.2	4.20979
9.21	4.19071
9.22	4.1861
9.23	4.17985
9.24	4.17788
9.25	4.2042
9.26	4.19433
9.27	4.18183
9.28	4.21867
9.29	4.14729
9.3	4.14202
9.31	4.18479
9.32	4.1611
9.33	4.18314
9.34	4.144
9.35	4.15814
9.36	4.16801
9.37	4.17459
9.38	4.15781
9.39	4.16933
9.4	4.16834
9.41	4.14268
9.42	4.18709
9.43	4.16472
9.44	4.16012
9.45	4.21078
9.46	4.16472
9.47	4.18282
9.48	4.21111
9.49	4.17262
9.5	4.17854
9.51	4.18775
9.52	4.18183
9.53	4.19203
9.54	4.15518
9.55	4.20551
9.56	4.1463
9.57	4.15683
9.58	4.17722
9.59	4.14992
9.6	4.16078
9.61	4.17262
9.62	4.19104
9.63	4.19137
9.64	4.15913
9.65	4.15452
9.66	4.14499
9.67	4.13248
9.68	4.15156
9.69	4.17262
9.7	4.11439
9.71	4.14696
9.72	4.1542
9.73	4.15255
9.74	4.14301
9.75	4.12755
9.76	4.14696
9.77	4.17722
9.78	4.1736
9.79	4.14663
9.8	4.13676
9.81	4.16012
9.82	4.169
9.83	4.18841
9.84	4.16703
9.85	4.17821
9.86	4.14235
9.87	4.19334
9.88	4.17689
9.89	4.19762
9.9	4.17591
9.91	4.17064
9.92	4.15716
9.93	4.19992
9.94	4.16999
9.95	4.14202
9.96	4.14564
9.97	4.17229
9.98	4.14433
9.99	4.18314
10	4.18775
10.01	4.13545
10.02	4.1713
10.03	4.12097
10.04	4.16275
10.05	4.19071
10.06	4.15946
10.07	4.13545
10.08	4.13084
10.09	4.14893
10.1	4.09202
10.11	4.13413
10.12	4.13479
10.13	4.14729
10.14	4.12755
10.15	4.12196
10.16	4.14499
10.17	4.17591
10.18	4.12163
10.19	4.11571
10.2	4.13643
10.21	4.17821
10.22	4.16275
10.23	4.1111
10.24	4.12163
10.25	4.16374
10.26	4.15124
10.27	4.11966
10.28	4.1315
10.29	4.13117
10.3	4.12031
10.31	4.14268
10.32	4.13051
10.33	4.19893
10.34	4.17031
10.35	4.15847
10.36	4.12656
10.37	4.14301
10.38	4.12755
10.39	4.16801
10.4	4.13577
10.41	4.1338
10.42	4.1065
10.43	4.1588
10.44	4.13545
10.45	4.11768
10.46	4.15551
10.47	4.13413
10.48	4.14762
10.49	4.08709
10.5	4.10354
10.51	4.14301
10.52	4.14827
10.53	4.11998
10.54	4.1361
10.55	4.1236
10.56	4.1315
10.57	4.15781
10.58	4.14992
10.59	4.12492
10.6	4.15222
10.61	4.15387
10.62	4.14334
10.63	4.13314
10.64	4.13084
10.65	4.13808
10.66	4.12591
10.67	4.12722
10.68	4.16176
10.69	4.14959
10.7	4.12854
10.71	4.17657
10.72	4.14499
10.73	4.15321
10.74	4.12163
10.75	4.13413
10.76	4.13051
10.77	4.14071
10.78	4.10189
10.79	4.1088
10.8	4.14499
10.81	4.1565
10.82	4.15847
10.83	4.11801
10.84	4.11702
10.85	4.14038
10.86	4.13742
10.87	4.17163
10.88	4.1213
10.89	4.13808
10.9	4.10847
10.91	4.11176
10.92	4.12952
10.93	4.08939
10.94	4.08446
10.95	4.10979
10.96	4.11801
10.97	4.09433
10.98	4.08775
10.99	4.10222
11	4.12327
11.01	4.15979
11.02	4.12097
11.03	4.1315
11.04	4.12295
11.05	4.13084
11.06	4.10485
11.07	4.09696
11.08	4.13874
11.09	4.16505
11.1	4.14663
11.11	4.15124
11.12	4.14071
11.13	4.14531
11.14	4.13314
11.15	4.09794
11.16	4.12492
11.17	4.13874
11.18	4.14959
11.19	4.11604
11.2	4.13676
11.21	4.13117
11.22	4.11933
11.23	4.14268
11.24	4.13314
11.25	4.12656
11.26	4.17262
11.27	4.12525
11.28	4.13479
11.29	4.1463
11.3	4.16867
11.31	4.12722
11.32	4.15354
11.33	4.16735
11.34	4.16735
11.35	4.13512
11.36	4.11341
11.37	4.09696
11.38	4.11505
11.39	4.12985
11.4	4.13972
11.41	4.12327
11.42	4.1588
11.43	4.13577
11.44	4.1486
11.45	4.15913
11.46	4.11209
11.47	4.07689
11.48	4.12097
11.49	4.11966
11.5	4.12459
11.51	4.16045
11.52	4.11801
11.53	4.1292
11.54	4.11768
11.55	4.1463
11.56	4.11768
11.57	4.13874
11.58	4.12262
11.59	4.09794
11.6	4.09762
11.61	4.11801
11.62	4.11867
11.63	4.11275
11.64	4.12262
11.65	4.16604
11.66	4.11077
11.67	4.10979
11.68	4.11801
11.69	4.094
11.7	4.09696
11.71	4.14926
11.72	4.12163
11.73	4.13413
11.74	4.14235
11.75	4.1315
11.76	4.09827
11.77	4.12229
11.78	4.08413
11.79	4.10748
11.8	4.1236
11.81	4.13841
11.82	4.12854
11.83	4.12821
11.84	4.11702
11.85	4.1088
11.86	4.13183
11.87	4.16143
11.88	4.12295
11.89	4.11439
11.9	4.12788
11.91	4.08939
11.92	4.0884
11.93	4.11242
11.94	4.0838
11.95	4.12196
11.96	4.13117
11.97	4.12887
11.98	4.13413
11.99	4.12887
12	4.14071
12.01	4.12031
12.02	4.07097
12.03	4.08808
12.04	4.13413
12.05	4.15946
12.06	4.12887
12.07	4.12689
12.08	4.09202
12.09	4.10781
12.1	4.07755
12.11	4.08808
12.12	4.14597
12.13	4.10716
12.14	4.11998
12.15	4.09301
12.16	4.06965
12.17	4.09893
12.18	4.09893
12.19	4.0986
12.2	4.094
12.21	4.07854
12.22	4.09498
12.23	4.11933
12.24	4.10979
12.25	4.09992
12.26	4.13347
12.27	4.07163
12.28	4.09827
12.29	4.11505
12.3	4.11275
12.31	4.07229
12.32	4.12196
12.33	4.11439
12.34	4.12097
12.35	4.094
12.36	4.09433
12.37	4.11966
12.38	4.1236
12.39	4.07623
12.4	4.09301
12.41	4.12229
12.42	4.12821
12.43	4.08511
12.44	4.07623
12.45	4.09465
12.46	4.11242
12.47	4.09926
12.48	4.09959
12.49	4.07886
12.5	4.09926
12.51	4.07261
12.52	4.10748
12.53	4.09663
12.54	4.14466
12.55	4.10387
12.56	4.10419
12.57	4.09137
12.58	4.11834
12.59	4.13413
12.6	4.1213
12.61	4.13775
12.62	4.12722
12.63	4.09433
12.64	4.06702
12.65	4.12656
12.66	4.12821
12.67	4.09827
12.68	4.11406
12.69	4.15617
12.7	4.10716
12.71	4.08873
12.72	4.094
12.73	4.119
12.74	4.11077
12.75	4.11604
12.76	4.13281
12.77	4.094
12.78	4.08314
12.79	4.08018
12.8	4.09564
12.81	4.09301
12.82	4.12163
12.83	4.10485
12.84	4.11077
12.85	4.09663
12.86	4.08117
12.87	4.08479
12.88	4.06965
12.89	4.07558
12.9	4.06373
12.91	4.08511
12.92	4.10814
12.93	4.11571
12.94	4.08775
12.95	4.10025
12.96	4.09268
12.97	4.07064
12.98	4.08544
12.99	4.12393
13	4.10156
13.01	4.12229
13.02	4.10617
13.03	4.1213
13.04	4.13117
13.05	4.1088
13.06	4.07097
13.07	4.06768
13.08	4.05025
13.09	4.07261
13.1	4.07722
13.11	4.1009
13.12	4.0736
13.13	4.06011
13.14	4.1065
13.15	4.07229
13.16	4.069
13.17	4.11735
13.18	4.04926
13.19	4.06702
13.2	4.06768
13.21	4.09433
13.22	4.08742
13.23	4.07558
13.24	4.10946
13.25	4.10485
13.26	4.06669
13.27	4.08051
13.28	4.06505
13.29	4.07854
13.3	4.10584
13.31	4.11768
13.32	4.06834
13.33	4.07656
13.34	4.07788
13.35	4.12295
13.36	4.07064
13.37	4.07196
13.38	4.11077
13.39	4.11077
13.4	4.10452
13.41	4.11012
13.42	4.06636
13.43	4.08972
13.44	4.07821
13.45	4.0861
13.46	4.11044
13.47	4.03939
13.48	4.04169
13.49	4.08084
13.5	4.069
13.51	4.08446
13.52	4.069
13.53	4.09367
13.54	4.06768
13.55	4.13676
13.56	4.08511
13.57	4.08248
13.58	4.09893
13.59	4.1111
13.6	4.07097
13.61	4.08248
13.62	4.0759
13.63	4.07788
13.64	4.06209
13.65	4.07788
13.66	4.12689
13.67	4.11242
13.68	4.06143
13.69	4.03906
13.7	4.07459
13.71	4.07623
13.72	4.06932
13.73	4.09597
13.74	4.07064
13.75	4.07426
13.76	4.06998
13.77	4.08873
13.78	4.07294
13.79	4.05979
13.8	4.08479
13.81	4.06735
13.82	4.08413
13.83	4.06242
13.84	4.02886
13.85	4.07952
13.86	4.09235
13.87	4.05913
13.88	4.09071
13.89	4.08281
13.9	4.08972
13.91	4.11012
13.92	4.08314
13.93	4.04893
13.94	4.07294
13.95	4.08709
13.96	4.10814
13.97	4.07985
13.98	4.09367
13.99	4.1088
14	4.08413
14.01	4.06604
14.02	4.07755
14.03	4.07788
14.04	4.08479
14.05	4.06998
14.06	4.08084
14.07	4.07327
14.08	4.05419
14.09	4.09926
14.1	4.05321
14.11	4.04761
14.12	4.08577
14.13	4.044
14.14	4.07163
14.15	4.0463
14.16	4.11505
14.17	4.09729
14.18	4.11077
14.19	4.05814
14.2	4.0884
14.21	4.08018
14.22	4.069
14.23	4.08742
14.24	4.07755
14.25	4.09597
14.26	4.07755
14.27	4.08215
14.28	4.05255
14.29	4.06373
14.3	4.07788
14.31	4.04071
14.32	4.0588
14.33	4.08873
14.34	4.0634
14.35	4.08906
14.36	4.07327
14.37	4.08808
14.38	4.04136
14.39	4.0634
14.4	4.04794
14.41	4.07755
14.42	4.05386
14.43	4.0736
14.44	4.08117
14.45	4.07031
14.46	4.07952
14.47	4.04893
14.48	4.07327
14.49	4.07196
14.5	4.03577
14.51	4.06044
14.52	4.07788
14.53	4.06406
14.54	4.05781
14.55	4.07952
14.56	4.11439
14.57	4.08084
14.58	4.05781
14.59	4.08413
14.6	4.10913
14.61	4.05452
14.62	4.07163
14.63	4.08775
14.64	4.10321
14.65	4.09794
14.66	4.08742
14.67	4.0486
14.68	4.05781
14.69	4.06011
14.7	4.04893
14.71	4.06176
14.72	4.04432
14.73	4.0861
14.74	4.09038
14.75	4.09169
14.76	4.07525
14.77	4.10683
14.78	4.07525
14.79	4.04761
14.8	4.07196
14.81	4.06735
14.82	4.06735
14.83	4.01998
14.84	4.05156
14.85	4.07952
14.86	4.0565
14.87	4.06801
14.88	4.03281
14.89	4.05419
14.9	4.04235
14.91	4.04728
14.92	4.08084
14.93	4.06044
14.94	4.05485
14.95	4.04992
14.96	4.05584
14.97	4.07163
14.98	4.09268
14.99	4.08643
15	4.08676
15.01	4.02853
15.02	4.06636
15.03	4.06176
15.04	4.07886
15.05	4.08577
15.06	4.06604
15.07	4.07722
15.08	4.04465
15.09	4.0463
15.1	4.02788
15.11	4.0588
15.12	4.07294
15.13	4.06044
15.14	4.06439
15.15	4.01801
15.16	4.04367
15.17	4.08347
15.18	4.10156
15.19	4.044
15.2	4.04169
15.21	4.06571
15.22	4.07722
15.23	4.03446
15.24	4.09696
15.25	4.08281
15.26	4.03478
15.27	4.05814
15.28	4.08742
15.29	4.08544
15.3	4.06834
15.31	4.06636
15.32	4.06768
15.33	4.08051
15.34	4.04827
15.35	4.04597
15.36	4.05584
15.37	4.0884
15.38	4.05979
15.39	4.06472
15.4	4.06275
15.41	4.04071
15.42	4.03084
15.43	4.04827
15.44	4.05255
15.45	4.03149
15.46	4.07689
15.47	4.04696
15.48	4.10288
15.49	4.08051
15.5	4.02393
15.51	4.05584
15.52	4.03215
15.53	4.05682
15.54	4.04071
15.55	4.044
15.56	4.05288
15.57	4.07426
15.58	4.02097
15.59	4.01538
15.6	4.07064
15.61	4.07393
15.62	4.05551
15.63	4.05386
15.64	4.07656
15.65	4.06538
15.66	4.07623
15.67	4.08676
15.68	4.0736
15.69	4.05025
15.7	4.08873
15.71	4.06077
15.72	4.0565
15.73	4.05452
15.74	4.05551
15.75	4.07623
15.76	4.07558
15.77	4.0759
15.78	4.07163
15.79	4.04992
15.8	4.02755
15.81	4.0634
15.82	4.06242
15.83	4.08775
15.84	4.08643
15.85	4.07393
15.86	4.10222
15.87	4.05189
15.88	4.04301
15.89	4.07886
15.9	4.02952
15.91	4.04663
15.92	4.0361
15.93	4.02031
15.94	4.05123
15.95	4.03972
15.96	4.06801
15.97	4.07492
15.98	4.06702
15.99	4.0736
16	4.07261
16.01	4.03972
16.02	4.0509
16.03	4.02557
16.04	4.09071
16.05	4.09597
16.06	4.03215
16.07	4.00452
16.08	4.0111
16.09	4.01834
16.1	4.05847
16.11	4.04959
16.12	4.07722
16.13	4.04761
16.14	4.05353
16.15	4.0884
16.16	4.03709
16.17	4.05123
16.18	4.00649
16.19	4.02294
16.2	4.06143
16.21	4.10058
16.22	4.06834
16.23	4.04169
16.24	4.07459
16.25	4.0634
16.26	4.06439
16.27	4.09038
16.28	4.08643
16.29	4.05255
16.3	4.0565
16.31	4.06406
16.32	4.08906
16.33	4.04992
16.34	4.03347
16.35	4.05452
16.36	4.04465
16.37	4.00913
16.38	4.03149
16.39	4.05913
16.4	4.06669
16.41	4.07229
16.42	4.03709
16.43	4.04071
16.44	4.06965
16.45	4.08775
16.46	4.06702
16.47	4.0565
16.48	4.10847
16.49	4.09169
16.5	4.05946
16.51	4.04038
16.52	4.03676
16.53	4.04301
16.54	4.04926
16.55	4.03742
16.56	4.05386
16.57	4.04696
16.58	4.02623
16.59	4.04071
16.6	4.08446
16.61	4.05979
16.62	4.04268
16.63	4.04136
16.64	4.0384
16.65	4.02853
16.66	4.01274
16.67	4.04301
16.68	4.04301
16.69	4.06011
16.7	4.05682
16.71	4.07163
16.72	4.03807
16.73	4.08215
16.74	3.99926
16.75	4.02261
16.76	4.02853
16.77	4.02788
16.78	4.02327
16.79	4.03807
16.8	4.01636
16.81	4.02821
16.82	4.08511
16.83	4.04465
16.84	4.03281
16.85	4.01768
16.86	4.03413
16.87	4.03972
16.88	4.02492
16.89	4.0111
16.9	4.04432
16.91	4.02426
16.92	4.0338
16.93	4.02919
16.94	4.03478
16.95	4.08873
16.96	4.03347
16.97	4.05551
16.98	4.03281
16.99	4.04169
17	4.05419
17.01	4.06307
17.02	4.04268
17.03	4.02261
17.04	4.05946
17.05	4.0565
17.06	4.02886
17.07	4.01242
17.08	4.0361
17.09	4.06143
17.1	4.08511
17.11	4.08939
17.12	4.04071
17.13	4.0032
17.14	4.01965
17.15	4.03643
17.16	4.05485
17.17	4.04498
17.18	4.02821
17.19	4.04663
17.2	4.03018
17.21	4.02985
17.22	4.01965
17.23	4.05452
17.24	4.02952
17.25	4.05682
17.26	4.07097
17.27	4.05386
17.28	4.02261
17.29	4.03873
17.3	4.04926
17.31	4.05156
17.32	4.03248
17.33	4.08446
17.34	4.07163
17.35	4.07229
17.36	4.03248
17.37	4.02755
17.38	4.04761
17.39	3.98807
17.4	4.00616
17.41	4.04696
17.42	4.02985
17.43	4.04531
17.44	4.0463
17.45	4.01472
17.46	4.00485
17.47	4.01669
17.48	4.02524
17.49	4.02327
17.5	4.03478
17.51	4.05748
17.52	4.05551
17.53	4.06143
17.54	4.0338
17.55	4.02524
17.56	4.04992
17.57	4.02788
17.58	4.01077
17.59	4.0236
17.6	4.04531
17.61	4.05057
17.62	4.04038
17.63	4.04235
17.64	4.06143
17.65	4.07886
17.66	4.06505
17.67	4.02985
17.68	4.02919
17.69	4.03117
17.7	4.02492
17.71	4.02623
17.72	3.99926
17.73	3.99728
17.74	3.98544
17.75	4.02952
17.76	4.02886
17.77	4.03709
17.78	4.02755
17.79	4.06965
17.8	4.06307
17.81	4.06472
17.82	4.04827
17.83	4.02919
17.84	4.02689
17.85	4.01603
17.86	4.04728
17.87	4.04465
17.88	4.05979
17.89	4.02755
17.9	4.01044
17.91	4.00024
17.92	4.02952
17.93	4.08577
17.94	4.02261
17.95	3.99597
17.96	4.01011
17.97	4.00616
17.98	4.0509
17.99	4.04531
18	4.06932
18.01	4.04005
18.02	4.02623
18.03	4.02426
18.04	4.01176
18.05	4.02097
18.06	4.0213
18.07	4.03051
18.08	4.04663
18.09	4.03972
18.1	4.04992
18.11	4.044
18.12	4.05189
18.13	4.02623
18.14	4.02327
18.15	4.04169
18.16	4.05847
18.17	4.01044
18.18	4.01965
18.19	4.05156
18.2	4.03478
18.21	4.03413
18.22	4.0565
18.23	4.0384
18.24	4.0236
18.25	4.03446
18.26	4.00945
18.27	4.02821
18.28	4.08084
18.29	4.04728
18.3	4.02623
18.31	4.04005
18.32	4.02919
18.33	4.069
18.34	4.01768
18.35	4.04202
18.36	4.02755
18.37	4.03676
18.38	4.02821
18.39	4.01899
18.4	4.04465
18.41	4.03972
18.42	4.03873
18.43	4.03972
18.44	4.06439
18.45	3.98182
18.46	4.03939
18.47	4.03051
18.48	4.03577
18.49	4.02788
18.5	4.01834
18.51	4.01472
18.52	4.00551
18.53	4.03676
18.54	4.0509
18.55	4.07294
18.56	4.03117
18.57	4.03873
18.58	3.99991
18.59	4.00386
18.6	4.04926
18.61	4.05814
18.62	4.04136
18.63	4.07919
18.64	4.0634
18.65	4.03281
18.66	4.04235
18.67	4.02524
18.68	4.00222
18.69	4.01274
18.7	3.98445
18.71	4.02097
18.72	4.0259
18.73	4.03248
18.74	4.04235
18.75	4.04169
18.76	4.02919
18.77	4.01867
18.78	4.04202
18.79	4.06998
18.8	4.03314
18.81	4.05814
18.82	4.06143
18.83	4.02064
18.84	4.03446
18.85	4.044
18.86	4.05814
18.87	4.06834
18.88	4.03084
18.89	4.04235
18.9	4.01472
18.91	4.02327
18.92	4.01998
18.93	4.01998
18.94	4.06472
18.95	4.04498
18.96	4.03117
18.97	4.01011
18.98	4.05321
18.99	4.07623
19	4.04926
19.01	4.03742
19.02	4.05452
19.03	4.00847
19.04	3.99465
19.05	4.05452
19.06	4.01143
19.07	3.98807
19.08	4.01472
19.09	4.06505
19.1	4.06538
19.11	4.04728
19.12	4.02722
19.13	4.02163
19.14	4.00222
19.15	4.00353
19.16	4.03742
19.17	4.03413
19.18	4.02492
19.19	4.00847
19.2	4.00485
19.21	4.02261
19.22	4.0088
19.23	4.04038
19.24	4.02492
19.25	4.02886
19.26	4.05222
19.27	4.02228
19.28	4.01801
19.29	4.00584
19.3	4.02557
19.31	4.02261
19.32	3.99564
19.33	4.04268
19.34	4.02788
19.35	4.04465
19.36	4.03939
19.37	4.03182
19.38	4.03676
19.39	4.03709
19.4	4.01899
19.41	3.99366
19.42	4.03215
19.43	4.02261
19.44	4.03544
19.45	4.04531
19.46	4.02788
19.47	4.04827
19.48	4.01965
19.49	4.00978
19.5	4.02031
19.51	4.03807
19.52	4.02886
19.53	4.0361
19.54	4.05419
19.55	4.07985
19.56	4.0384
19.57	4.01834
19.58	3.98018
19.59	3.96505
19.6	3.99564
19.61	4.02985
19.62	3.98807
19.63	4.00057
19.64	3.99268
19.65	3.99465
19.66	4.00649
19.67	4.01406
19.68	4.00255
19.69	4.02886
19.7	4.04794
19.71	4.03413
19.72	4.01406
19.73	4.03182
19.74	4.03939
19.75	4.02755
19.76	3.98149
19.77	4.00057
19.78	3.99432
19.79	4.00452
19.8	4.03478
19.81	4.02327
19.82	4.03051
19.83	4.0384
19.84	4.01834
19.85	4.0611
19.86	4.04564
19.87	4.03347
19.88	4.00485
19.89	3.99728
19.9	4.00386
19.91	3.99301
19.92	4.02294
19.93	4.02393
19.94	4.0157
19.95	3.96702
19.96	4.02524
19.97	4.00847
19.98	4.04202
19.99	4.0338
20	4.02656
20.01	4.03281
20.02	3.99663
20.03	4.02557
20.04	4.03544
20.05	4.01472
20.06	4.02031
20.07	4.03281
20.08	4.02755
20.09	4.03577
20.1	4.05913
20.11	4.00814
20.12	4.01669
20.13	3.99695
20.14	3.99531
20.15	4.00913
20.16	3.99366
20.17	4.01307
20.18	3.97787
20.19	3.99959
20.2	4.00748
20.21	3.99136
20.22	3.9963
20.23	3.99005
20.24	4.02031
20.25	4.00518
20.26	4.00551
20.27	4.01735
20.28	4.00649
20.29	4.00551
20.3	4.00913
20.31	3.98972
20.32	4.03248
20.33	4.04498
20.34	4.02261
20.35	3.98051
20.36	3.97853
20.37	4.0088
20.38	4.0134
20.39	4.02492
20.4	4.01472
20.41	4.00649
20.42	3.99728
20.43	4.02195
20.44	3.97985
20.45	4.00024
20.46	4.02195
20.47	4.07952
20.48	4.05485
20.49	4.02557
20.5	3.99334
20.51	3.97886
20.52	4.04367
20.53	4.00156
20.54	4.02722
20.55	4.02919
20.56	3.9963
20.57	3.98314
20.58	4.00288
20.59	3.98939
20.6	4.0111
20.61	4.01011
20.62	4.00288
20.63	4.00682
20.64	4.02097
20.65	4.03051
20.66	4.01406
20.67	3.97195
20.68	4.00913
20.69	4.00847
20.7	4.01406
20.71	4.02426
20.72	4.02985
20.73	4.01932
20.74	3.99663
20.75	3.99794
20.76	3.99959
20.77	3.96998
20.78	3.99235
20.79	4.02228
20.8	4.03873
20.81	4.06275
20.82	4.05913
20.83	4.01472
20.84	4.01505
20.85	4.0259
20.86	3.9634
20.87	3.97755
20.88	4.00189
20.89	4.03577
20.9	3.99498
20.91	3.99794
20.92	4.03084
20.93	4.02656
20.94	3.97722
20.95	4.00156
20.96	3.99399
20.97	3.98018
20.98	4.01768
20.99	4.00715
21	3.97459
21.01	4.01538
21.02	4.02459
21.03	4.01636
21.04	3.98149
21.05	4.02524
21.06	4.03281
21.07	4.04498
21.08	4.05189
21.09	4.00189
21.1	4.00649
21.11	4.00222
21.12	3.96241
21.13	3.96998
21.14	3.98051
21.15	4.00123
21.16	4.02163
21.17	4.01867
21.18	4.00156
21.19	3.99531
21.2	3.99103
21.21	3.99334
21.22	3.99531
21.23	4.01307
21.24	4.03018
21.25	4.00945
21.26	4.00584
21.27	4.03544
21.28	4.03972
21.29	4.00386
21.3	4.0134
21.31	4.02261
21.32	3.99465
21.33	3.99991
21.34	3.99794
21.35	4.00682
21.36	3.99334
21.37	3.9963
21.38	4.01998
21.39	4.04136
21.4	4.01867
21.41	4.03149
21.42	3.99202
21.43	3.97722
21.44	4.00682
21.45	3.97787
21.46	4.00847
21.47	3.98709
21.48	4.04071
21.49	4.04301
21.5	3.98314
21.51	3.99038
21.52	4.00123
21.53	4.01801
21.54	4.01505
21.55	3.99202
21.56	3.96833
21.57	4.03643
21.58	4.04531
21.59	4.03577
21.6	4.02656
21.61	4.01768
21.62	4.01669
21.63	4.04103
21.64	3.99399
21.65	3.97755
21.66	4.03906
21.67	4.03478
21.68	4.03215
21.69	4.03051
21.7	4.0088
21.71	4.00715
21.72	4.00386
21.73	4.01702
21.74	4.00222
21.75	4.00814
21.76	3.98478
21.77	4.0236
21.78	4.00978
21.79	3.9963
21.8	4.02821
21.81	4.0361
21.82	4.03511
21.83	4.01702
21.84	4.02426
21.85	4.04663
21.86	4.00616
21.87	4.02097
21.88	4.02327
21.89	3.99531
21.9	4.03248
21.91	4.01867
21.92	4.02656
21.93	4.0713
21.94	4.02853
21.95	4.01209
21.96	4.00748
21.97	3.99827
21.98	4.02919
21.99	4.01472
22	4.01406
22.01	4.00288
22.02	4.05057
22.03	4.05814
22.04	4.04301
22.05	4.01472
22.06	3.98084
22.07	4.03149
22.08	4.01373
22.09	4.00584
22.1	4.02492
22.11	4.01702
22.12	4.01603
22.13	4.02393
22.14	3.98741
22.15	3.99432
22.16	3.97689
22.17	3.9986
22.18	4.00452
22.19	3.96932
22.2	3.97524
22.21	3.96965
22.22	3.99235
22.23	4.01439
22.24	3.99695
22.25	3.99465
22.26	3.97031
22.27	3.99597
22.28	4.00584
22.29	3.98709
22.3	4.01702
22.31	4.04235
22.32	4.03939
22.33	3.97722
22.34	4.00353
22.35	3.99531
22.36	3.99926
22.37	4.08906
22.38	4.00682
22.39	3.9907
22.4	4.01274
22.41	4.00222
22.42	3.97755
22.43	3.98116
22.44	3.97886
22.45	3.96735
22.46	3.98347
22.47	4.02031
22.48	3.97755
22.49	3.9759
22.5	4.00222
22.51	4.00781
22.52	3.99366
22.53	3.96241
22.54	3.95222
22.55	3.99038
22.56	4.00255
22.57	4.0157
22.58	3.99235
22.59	3.97459
22.6	4.01242
22.61	4.02722
22.62	4.0009
22.63	3.99334
22.64	3.99366
22.65	4.06373
22.66	4.03018
22.67	4.02853
22.68	4.0463
22.69	4.01669
22.7	4.01603
22.71	4.0088
22.72	3.9838
22.73	3.97952
22.74	4.01899
22.75	4.01373
22.76	4.00551
22.77	3.98873
22.78	4.05748
22.79	4.01702
22.8	4.00616
22.81	3.99301
22.82	4.01505
22.83	3.98116
22.84	3.97886
22.85	3.9986
22.86	3.99103
22.87	4.00649
22.88	3.97689
22.89	3.9838
22.9	4.02492
22.91	4.03413
22.92	4.04005
22.93	4.01834
22.94	3.99399
22.95	4.00584
22.96	4.01867
22.97	3.99366
22.98	4.00485
22.99	3.99235
23	4.01702
23.01	3.99235
23.02	4.00616
23.03	3.97557
23.04	3.97064
23.05	3.95814
23.06	3.97787
23.07	4.03807
23.08	3.99399
23.09	3.99728
23.1	3.99794
23.11	4.01801
23.12	4.01505
23.13	4.03051
23.14	4.02952
23.15	4.03018
23.16	4.02919
23.17	4.01505
23.18	3.9963
23.19	3.94794
23.2	3.9736
23.21	3.99827
23.22	3.99498
23.23	4.00584
23.24	3.98709
23.25	3.98149
23.26	4.02623
23.27	4.00781
23.28	3.9782
23.29	3.96702
23.3	3.98149
23.31	4.02722
23.32	3.99564
23.33	4.02985
23.34	4.03149
23.35	3.97656
23.36	3.99268
23.37	3.99301
23.38	4.0111
23.39	3.99136
23.4	4.0032
23.41	4.04893
23.42	4.00715
23.43	3.97524
23.44	4.01011
23.45	4.00978
23.46	3.98741
23.47	3.98676
23.48	4.03709
23.49	4.02327
23.5	3.99103
23.51	3.99103
23.52	4.02985
23.53	4.03906
23.54	4.01932
23.55	3.99564
23.56	4.00781
23.57	4.01274
23.58	3.98577
23.59	3.99005
23.6	3.9736
23.61	4.01044
23.62	4.04169
23.63	4.00057
23.64	3.98412
23.65	3.98084
23.66	3.99432
23.67	4.02031
23.68	4.00781
23.69	4.01932
23.7	4.01077
23.71	4.0213
23.72	4.01209
23.73	4.01077
23.74	3.9588
23.75	3.99334
23.76	3.96998
23.77	3.9759
23.78	3.98149
23.79	3.9407
23.8	4.02261
23.81	3.99597
23.82	4.01538
23.83	4.00748
23.84	3.9986
23.85	3.96998
23.86	4.01307
23.87	4.00057
23.88	4.03182
23.89	4.01669
23.9	3.97294
23.91	3.99103
23.92	3.98347
23.93	3.96801
23.94	3.99794
23.95	4.01801
23.96	3.99564
23.97	4.00123
23.98	4.00518
23.99	4.02426
24	4.06373
24.01	4.01274
24.02	3.97064
24.03	4.0213
24.04	4.01472
24.05	4.01801
24.06	3.99103
24.07	3.9838
24.08	3.96241
24.09	3.92886
24.1	3.97097
24.11	3.98774
24.12	4.00222
24.13	3.99268
24.14	4.0032
24.15	3.98511
24.16	3.95024
24.17	3.95715
24.18	3.96801
24.19	3.9963
24.2	3.99564
24.21	3.99728
24.22	4.01373
24.23	3.98544
24.24	4.02459
24.25	4.03544
24.26	3.99432
24.27	3.96439
24.28	3.99103
24.29	3.96077
24.3	3.97097
24.31	3.96603
24.32	3.96373
24.33	3.95748
24.34	3.96373
24.35	4.01899
24.36	4.0032
24.37	3.9986
24.38	4.02853
24.39	4.04169
24.4	4.01702
24.41	4.0032
24.42	3.95518
24.43	4.01636
24.44	4.01505
24.45	3.97952
24.46	4.02886
24.47	3.96866
24.48	3.96439
24.49	3.98445
24.5	3.98676
24.51	4.03709
24.52	4.00255
24.53	3.97228
24.54	4.01834
24.55	4.00419
24.56	4.0213
24.57	4.02524
24.58	4.01077
24.59	3.98939
24.6	4.01143
24.61	4.01636
24.62	4.01932
24.63	4.00156
24.64	3.99038
24.65	3.99728
24.66	4.02689
24.67	3.99991
24.68	3.97162
24.69	3.9782
24.7	3.99334
24.71	4.02426
24.72	4.00781
24.73	4.02228
24.74	4.01899
24.75	4.00682
24.76	4.02031
24.77	4.02524
24.78	4.00616
24.79	3.99268
24.8	3.99103
24.81	3.98281
24.82	3.99728
24.83	4.00913
24.84	4.01274
24.85	4.03215
24.86	4.00913
24.87	3.99761
24.88	4.01209
24.89	4.01176
24.9	4.02788
24.91	3.97524
24.92	4.00452
24.93	4.01143
24.94	4.02031
24.95	4.02459
24.96	4.02722
24.97	3.99301
24.98	4.00814
24.99	4.01472
25	4.01505
25.01	4.00222
25.02	4.0111
25.03	3.98774
25.04	4.00748
25.05	4.02228
25.06	4.02689
25.07	4.02064
25.08	4.00978
25.09	4.00616
25.1	4.00353
25.11	3.99959
25.12	3.98741
25.13	3.99038
25.14	4.01472
25.15	3.99695
25.16	3.99235
25.17	4.01077
25.18	3.97656
25.19	3.97787
25.2	3.97886
25.21	3.98248
25.22	3.97097
25.23	4.0111
25.24	4.03248
25.25	4.01143
25.26	3.98709
25.27	4.00255
25.28	3.99366
25.29	3.99827
25.3	4.00748
25.31	4.03939
25.32	3.99103
25.33	3.98577
25.34	3.95419
25.35	3.96143
25.36	4.01209
25.37	4.04071
25.38	3.99761
25.39	4.03051
25.4	4.02886
25.41	4.00748
25.42	3.97623
25.43	4.01274
25.44	4.03281
25.45	3.96208
25.46	4.02656
25.47	3.97722
25.48	3.97787
25.49	3.96373
25.5	4.00024
25.51	3.99366
25.52	4.00222
25.53	4.00913
25.54	4.01176
25.55	3.97524
25.56	3.96537
25.57	3.96176
25.58	3.99136
25.59	4.0032
25.6	4.00584
25.61	3.9759
25.62	3.98741
25.63	4.00945
25.64	3.99038
25.65	4.00616
25.66	4.00781
25.67	3.94695
25.68	3.95386
25.69	3.98676
25.7	3.9884
25.71	4.00945
25.72	4.0565
25.73	4.04564
25.74	4.00748
25.75	3.97755
25.76	3.99728
25.77	4.01143
25.78	3.98577
25.79	4.00551
25.8	3.98906
25.81	3.99794
25.82	4.02821
25.83	3.9986
25.84	4.04827
25.85	3.9884
25.86	4.00748
25.87	3.9782
25.88	3.98116
25.89	4.00057
25.9	3.98544
25.91	3.99136
25.92	3.9713
25.93	3.96735
25.94	3.97294
25.95	4.02426
25.96	3.97327
25.97	3.97064
25.98	3.95649
25.99	3.98511
26	3.99761
26.01	3.99202
26.02	4.04959
26.03	4.0032
26.04	3.98906
26.05	3.9759
26.06	3.96307
26.07	3.99597
26.08	3.99663
26.09	4.01439
26.1	4.01077
26.11	4.02952
26.12	4.00616
26.13	3.99202
26.14	3.98018
26.15	4.01176
26.16	3.96241
26.17	3.98741
26.18	4.02919
26.19	4.04038
26.2	4.01702
26.21	3.95616
26.22	3.99959
26.23	4.00913
26.24	3.99728
26.25	3.99136
26.26	3.97656
26.27	3.97491
26.28	3.97031
26.29	3.96143
26.3	3.93116
26.31	3.99334
26.32	3.98281
26.33	3.97919
26.34	4.00156
26.35	3.99893
26.36	3.95682
26.37	4.00682
26.38	3.96537
26.39	4.01373
26.4	4.00814
26.41	3.97919
26.42	4.03939
26.43	4.02722
26.44	4.01373
26.45	4.01636
26.46	4.04728
26.47	4.00748
26.48	3.97952
26.49	4.0088
26.5	3.98906
26.51	4.0111
26.52	4.03873
26.53	3.97689
26.54	3.99038
26.55	3.92853
26.56	3.95682
26.57	3.99959
26.58	4.00123
26.59	3.94794
26.6	4.02459
26.61	4.0384
26.62	4.00123
26.63	4.01143
26.64	4.01867
26.65	4.01603
26.66	3.96011
26.67	3.99202
26.68	4.0213
26.69	3.99103
26.7	3.94827
26.71	3.97623
26.72	3.96044
26.73	3.98248
26.74	3.99136
26.75	3.96439
26.76	3.96472
26.77	4.00649
26.78	3.96702
26.79	3.99695
26.8	3.95978
26.81	3.97623
26.82	4.00288
26.83	4.00913
26.84	4.00057
26.85	3.97491
26.86	4.00123
26.87	3.99202
26.88	4.00156
26.89	4.01603
26.9	3.98709
26.91	4.02492
26.92	4.02163
26.93	3.96143
26.94	4.00715
26.95	3.99465
26.96	3.98084
26.97	3.97459
26.98	3.9884
26.99	3.98314
27	4.02195
27.01	3.97426
27.02	3.94926
27.03	4.02722
27.04	3.99432
27.05	3.97327
27.06	4.04531
27.07	4.00715
27.08	3.99038
27.09	3.99465
27.1	3.98709
27.11	3.99038
27.12	4.00386
27.13	3.97557
27.14	4.02064
27.15	4.00945
27.16	4.01636
27.17	4.02886
27.18	4.00057
27.19	3.98873
27.2	4.0157
27.21	3.95945
27.22	4.01044
27.23	4.01077
27.24	3.9884
27.25	4.00616
27.26	3.98248
27.27	3.99103
27.28	3.97656
27.29	3.98676
27.3	4.01735
27.31	4.00649
27.32	3.99597
27.33	3.98939
27.34	3.98347
27.35	3.98149
27.36	3.97162
27.37	3.99728
27.38	4.00649
27.39	3.98084
27.4	3.95912
27.41	3.98149
27.42	3.97064
27.43	4.01538
27.44	3.97985
27.45	3.95682
27.46	4.02195
27.47	4.01176
27.48	3.97689
27.49	4.00024
27.5	4.00156
27.51	3.99597
27.52	4.03807
27.53	4.00748
27.54	3.97919
27.55	3.99465
27.56	4.0088
27.57	3.97623
27.58	3.97228
27.59	3.98807
27.6	4.0259
27.61	4.02294
27.62	3.97491
27.63	3.99169
27.64	3.98577
27.65	3.98149
27.66	3.99663
27.67	3.97459
27.68	4.00485
27.69	3.97952
27.7	3.97722
27.71	3.96439
27.72	4.00616
27.73	3.98972
27.74	3.98182
27.75	3.98018
27.76	3.99136
27.77	3.96866
27.78	3.95945
27.79	4.00485
27.8	4.02327
27.81	3.99235
27.82	3.98676
27.83	3.99564
27.84	4.00024
27.85	3.99926
27.86	3.93281
27.87	3.96077
27.88	3.99761
27.89	4.02393
27.9	3.99334
27.91	3.94432
27.92	3.99268
27.93	3.98511
27.94	3.96899
27.95	3.95254
27.96	4.01406
27.97	4.01472
27.98	4.0134
27.99	4.01998
28	4.00913
28.01	3.98281
28.02	3.97952
28.03	3.97853
28.04	3.9838
28.05	3.97755
28.06	3.98412
28.07	3.99465
28.08	3.9884
28.09	4.01768
28.1	3.99202
28.11	4.01472
28.12	3.98511
28.13	3.98116
28.14	3.98084
28.15	3.99663
28.16	4.00913
28.17	4.01307
28.18	4.02064
28.19	4.02393
28.2	3.99202
28.21	3.97919
28.22	3.97524
28.23	3.97557
28.24	3.99564
28.25	3.98511
28.26	3.96176
28.27	3.96998
28.28	3.98906
28.29	4.00189
28.3	4.0157
28.31	3.99498
28.32	3.96636
28.33	3.99268
28.34	4.01932
28.35	3.98807
28.36	3.99334
28.37	3.99663
28.38	3.98347
28.39	3.99761
28.4	3.99268
28.41	4.02985
28.42	3.96636
28.43	3.93939
28.44	3.9838
28.45	3.98412
28.46	3.96044
28.47	3.95649
28.48	3.94465
28.49	3.94761
28.5	3.96472
28.51	3.99893
28.52	4.01965
28.53	3.97886
28.54	3.97031
28.55	3.98906
28.56	3.95748
28.57	3.98018
28.58	3.97393
28.59	3.99301
28.6	3.96373
28.61	4.044
28.62	4.01373
28.63	3.97491
28.64	3.94103
28.65	3.97228
28.66	3.98149
28.67	4.02261
28.68	3.97689
28.69	4.00255
28.7	3.97491
28.71	3.94432
28.72	3.98709
28.73	3.98709
28.74	3.96143
28.75	3.98347
28.76	4.01834
28.77	3.97952
28.78	4.01044
28.79	4.02623
28.8	3.99399
28.81	3.9861
28.82	4.00353
28.83	3.96735
28.84	3.98873
28.85	4.01768
28.86	3.9884
28.87	3.98215
28.88	3.99991
28.89	3.95715
28.9	3.9657
28.91	3.97524
28.92	3.98807
28.93	4.01965
28.94	3.95485
28.95	3.94761
28.96	3.97524
28.97	4.00123
28.98	3.99728
28.99	4.00847
29	3.95254
29.01	3.97623
29.02	4.00616
29.03	3.95945
29.04	3.98478
29.05	3.98643
29.06	4.05025
29.07	4.00616
29.08	3.96537
29.09	3.99366
29.1	4.00715
29.11	4.00288
29.12	4.00485
29.13	3.96998
29.14	3.97294
29.15	3.95847
29.16	4.01077
29.17	3.96669
29.18	3.99564
29.19	4.00518
29.2	3.99991
29.21	3.98248
29.22	3.97689
29.23	4.00485
29.24	4.03248
29.25	4.01867
29.26	3.98149
29.27	3.95024
29.28	3.97623
29.29	3.98116
29.3	3.97426
29.31	3.97294
29.32	4.00945
29.33	3.98149
29.34	3.98051
29.35	3.97162
29.36	3.97755
29.37	3.98412
29.38	3.94169
29.39	3.95189
29.4	4.01472
29.41	3.97557
29.42	4.02755
29.43	3.98741
29.44	3.95123
29.45	3.98116
29.46	3.98182
29.47	3.97261
29.48	3.9782
29.49	4.01209
29.5	3.99728
29.51	4.00353
29.52	3.97722
29.53	3.97426
29.54	3.97985
29.55	3.9736
29.56	3.97985
29.57	3.96406
29.58	3.97491
29.59	3.98248
29.6	3.97689
29.61	3.99498
29.62	3.98643
29.63	3.97459
29.64	3.96406
29.65	4.00551
29.66	3.99531
29.67	3.94037
29.68	3.96241
29.69	4.02031
29.7	3.9736
29.71	3.9838
29.72	3.96505
29.73	3.98018
29.74	4.00649
29.75	4.00189
29.76	3.97722
29.77	3.99728
29.78	3.99465
29.79	3.94893
29.8	3.98149
29.81	3.96801
29.82	4.00024
29.83	4.01899
29.84	4.00584
29.85	4.01702
29.86	4.00288
29.87	4.01998
29.88	3.99334
29.89	3.95057
29.9	3.93873
29.91	3.95353
29.92	3.94498
29.93	3.99498
29.94	4.01899
29.95	3.99136
29.96	3.97459
29.97	4.0213
29.98	3.9759
29.99	3.98215
30	3.95353
30.01	3.94366
30.02	4.0236
30.03	3.99794
30.04	3.9986
30.05	3.97491
30.06	3.9907
30.07	3.9838
30.08	4.01801
30.09	3.9736
30.1	3.96406
30.11	4.01209
30.12	3.9884
30.13	4.00288
30.14	4.01274
30.15	3.97689
30.16	3.97393
30.17	3.97524
30.18	3.97097
30.19	3.92886
30.2	3.98018
30.21	3.98248
30.22	3.97985
30.23	3.96143
30.24	3.95814
30.25	3.9782
30.26	3.95024
30.27	3.97294
30.28	3.99761
30.29	3.99268
30.3	3.99695
30.31	4.02459
30.32	3.98314
30.33	3.98116
30.34	3.97853
30.35	3.9907
30.36	3.99103
30.37	3.97327
30.38	3.9486
30.39	3.9713
30.4	3.9509
30.41	4.0032
30.42	3.9838
30.43	3.97755
30.44	3.94531
30.45	3.96801
30.46	3.96307
30.47	3.97459
30.48	3.97097
30.49	3.97722
30.5	4.01406
30.51	3.9963
30.52	3.98412
30.53	4.03182
30.54	3.9963
30.55	3.97097
30.56	3.98676
30.57	3.97261
30.58	4.02459
30.59	3.97853
30.6	3.96932
30.61	3.9759
30.62	3.99366
30.63	4.00847
30.64	4.00024
30.65	3.96702
30.66	3.95814
30.67	3.98511
30.68	3.98018
30.69	3.95254
30.7	3.96932
30.71	3.96241
30.72	3.95353
30.73	3.98412
30.74	3.99827
30.75	3.97261
30.76	3.99334
30.77	3.95353
30.78	3.96998
30.79	3.98281
30.8	3.9986
30.81	4.0088
30.82	4.03972
30.83	4.01044
30.84	3.97623
30.85	3.99399
30.86	3.97919
30.87	4.02459
30.88	3.99235
30.89	3.97097
30.9	3.96603
30.91	3.96965
30.92	3.97623
30.93	3.99893
30.94	3.97524
30.95	3.97722
30.96	3.97426
30.97	3.98741
30.98	3.97689
30.99	3.96768
31	3.96077
31.01	3.98807
31.02	3.99728
31.03	3.96208
31.04	3.97985
31.05	3.97031
31.06	3.96505
31.07	3.94268
31.08	3.99202
31.09	3.98281
31.1	3.94531
31.11	3.98116
31.12	3.98149
31.13	3.99268
31.14	3.95057
31.15	3.98511
31.16	3.98116
31.17	3.99926
31.18	3.97853
31.19	3.98445
31.2	3.9861
31.21	3.98281
31.22	4.0134
31.23	3.9907
31.24	3.96636
31.25	3.9657
31.26	3.98412
31.27	3.96899
31.28	4.00057
31.29	3.98906
31.3	4.00551
31.31	3.97689
31.32	3.98906
31.33	3.9907
31.34	4.01406
31.35	4.00748
31.36	3.94498
31.37	4.02294
31.38	4.00386
31.39	3.96899
31.4	3.99761
31.41	3.96307
31.42	3.98084
31.43	3.95485
31.44	3.96143
31.45	3.9907
31.46	3.99893
31.47	3.9736
31.48	3.96965
31.49	3.99334
31.5	3.99564
31.51	3.97919
31.52	3.98544
31.53	3.98544
31.54	3.99761
31.55	4.01406
31.56	4.00551
31.57	4.01242
31.58	4.0157
31.59	4.02294
31.6	3.9782
31.61	3.97623
31.62	3.95945
31.63	3.98215
31.64	3.9657
31.65	3.99235
31.66	4.01998
31.67	3.96472
31.68	3.9884
31.69	4.00945
31.7	4.00682
31.71	3.95222
31.72	3.96044
31.73	3.97985
31.74	3.97195
31.75	3.96176
31.76	3.98281
31.77	3.99959
31.78	4.01307
31.79	3.95123
31.8	3.97031
31.81	3.97623
31.82	3.9838
31.83	3.96011
31.84	3.97195
31.85	3.99728
31.86	3.9759
31.87	4.00222
31.88	3.95715
31.89	3.97064
31.9	3.97524
31.91	3.97031
31.92	3.9611
31.93	4.01011
31.94	3.9759
31.95	3.94761
31.96	3.96801
31.97	3.95222
31.98	3.96965
31.99	3.95682
32	3.98478
32.01	3.95386
32.02	3.9657
32.03	3.96176
32.04	3.97261
32.05	3.96373
32.06	3.97656
32.07	3.95715
32.08	3.9634
32.09	3.98643
32.1	3.99959
32.11	3.97426
32.12	3.98478
32.13	3.95912
32.14	3.95222
32.15	4.01998
32.16	3.99399
32.17	3.99893
32.18	3.97985
32.19	4.04268
32.2	3.98807
32.21	3.9486
32.22	3.96439
32.23	3.94926
32.24	3.94662
32.25	3.95814
32.26	3.98182
32.27	3.99695
32.28	3.9884
32.29	3.98248
32.3	3.95978
32.31	3.93972
32.32	3.95287
32.33	3.96932
32.34	3.98774
32.35	3.98149
32.36	3.99103
32.37	3.98018
32.38	3.94399
32.39	3.95978
32.4	3.99235
32.41	3.95485
32.42	3.96965
32.43	3.96833
32.44	3.95287
32.45	3.98741
32.46	3.98412
32.47	3.9509
32.48	3.96669
32.49	3.99235
32.5	3.98741
32.51	3.94004
32.52	3.97722
32.53	4.01603
32.54	4.0032
32.55	3.99926
32.56	3.96505
32.57	3.97787
32.58	3.97195
32.59	3.95912
32.6	3.95649
32.61	3.98577
32.62	3.95715
32.63	3.94893
32.64	3.97886
32.65	3.9611
32.66	3.96011
32.67	3.9884
32.68	3.99399
32.69	4.0088
32.7	4.01242
32.71	4.00616
32.72	3.96439
32.73	3.96866
32.74	3.98281
32.75	3.98906
32.76	3.97755
32.77	3.9986
32.78	3.98116
32.79	4.00189
32.8	3.9838
32.81	4.0032
32.82	3.99235
32.83	3.97195
32.84	3.97623
32.85	3.98709
32.86	3.97031
32.87	3.96636
32.88	3.96603
32.89	3.99136
32.9	3.95452
32.91	3.99564
32.92	3.97393
32.93	3.9884
32.94	3.98676
32.95	3.94958
32.96	3.99399
32.97	4.00255
32.98	3.99432
32.99	3.98807
33	4.00386
33.01	4.01143
33.02	3.95715
33.03	3.97755
33.04	3.98051
33.05	4.0009
33.06	4.01505
33.07	3.96833
33.08	3.97623
33.09	3.96307
33.1	3.99366
33.11	3.99794
33.12	4.01932
33.13	3.98412
33.14	3.95254
33.15	4.00485
33.16	3.97491
33.17	4.00715
33.18	4.01932
33.19	4.02886
33.2	3.97886
33.21	3.98051
33.22	3.97393
33.23	3.99366
33.24	4.01702
33.25	3.98347
33.26	3.99169
33.27	3.9736
33.28	3.9713
33.29	4.00419
33.3	3.99399
33.31	3.97426
33.32	3.99794
33.33	3.99597
33.34	3.99432
33.35	4.00518
33.36	4.00024
33.37	3.99169
33.38	3.97722
33.39	3.97393
33.4	4.00913
33.41	4.00024
33.42	3.95682
33.43	3.98182
33.44	3.98347
33.45	3.96998
33.46	3.99728
33.47	4.01406
33.48	3.96932
33.49	3.99531
33.5	4.01307
33.51	4.00682
33.52	3.97195
33.53	3.97162
33.54	3.98149
33.55	3.96603
33.56	3.9907
33.57	3.97623
33.58	3.96406
33.59	3.94432
33.6	3.95978
33.61	3.98182
33.62	3.93281
33.63	3.98412
33.64	4.0111
33.65	4.01044
33.66	4.00682
33.67	3.9907
33.68	3.92557
33.69	3.95682
33.7	3.95847
33.71	3.98478
33.72	3.99038
33.73	3.97261
33.74	3.98314
33.75	3.94235
33.76	3.92524
33.77	3.96801
33.78	3.9963
33.79	3.97722
33.8	3.9634
33.81	3.94136
33.82	3.98018
33.83	3.99991
33.84	3.97327
33.85	3.97919
33.86	3.99959
33.87	3.9884
33.88	3.9861
33.89	3.94926
33.9	3.95222
33.91	3.98149
33.92	3.97426
33.93	3.99531
33.94	4.01373
33.95	3.98544
33.96	3.98215
33.97	3.95912
33.98	3.92787
33.99	3.97787
34	3.99498
34.01	3.98116
34.02	4.0111
34.03	4.0088
34.04	3.94794
34.05	3.93018
34.06	3.9657
34.07	3.95123
34.08	3.97327
34.09	4.01143
34.1	3.95912
34.11	3.96176
34.12	3.93774
34.13	3.96636
34.14	3.95649
34.15	3.9782
34.16	3.97064
34.17	3.96965
34.18	3.97623
34.19	3.99268
34.2	3.94761
34.21	3.9713
34.22	4.00847
34.23	3.97755
34.24	3.98116
34.25	3.99728
34.26	3.98873
34.27	3.98149
34.28	3.99366
34.29	3.95847
34.3	3.99399
34.31	3.97787
34.32	3.9657
34.33	3.96044
34.34	3.99728
34.35	3.99334
34.36	3.94958
34.37	3.99301
34.38	3.99695
34.39	3.96472
34.4	3.95583
34.41	3.94333
34.42	3.96077
34.43	4.02689
34.44	3.97952
34.45	3.9963
34.46	4.00189
34.47	3.94037
34.48	3.96011
34.49	4.00386
34.5	3.95781
34.51	3.97031
34.52	3.97097
34.53	3.95583
34.54	3.99366
34.55	3.98972
34.56	3.94926
34.57	3.97886
34.58	3.98116
34.59	3.98182
34.6	3.97031
34.61	3.99399
34.62	4.00057
34.63	3.98544
34.64	3.96472
34.65	3.96439
34.66	4.00222
34.67	4.00616
34.68	3.95945
34.69	3.97097
34.7	3.9838
34.71	3.96768
34.72	3.96077
34.73	3.99991
34.74	4.00748
34.75	3.99366
34.76	4.00781
34.77	3.96143
34.78	4.00024
34.79	4.01077
34.8	3.98084
34.81	3.98873
34.82	3.96472
34.83	4.00649
34.84	3.99893
34.85	3.98906
34.86	3.95945
34.87	3.9532
34.88	3.99366
34.89	3.9634
34.9	3.96998
34.91	3.96899
34.92	4.00222
34.93	3.97886
34.94	3.97623
34.95	3.93149
34.96	3.93643
34.97	3.97393
34.98	3.99959
34.99	3.95551
35	3.96899
35.01	3.99103
35.02	4.00682
35.03	4.00386
35.04	4.0088
35.05	3.99498
35.06	3.97755
35.07	3.97426
35.08	3.96866
35.09	3.98972
35.1	3.9884
35.11	3.98873
35.12	3.98577
35.13	4.00518
35.14	4.01143
35.15	3.98248
35.16	3.93807
35.17	3.94597
35.18	3.9884
35.19	3.98445
35.2	3.99038
35.21	3.97327
35.22	3.95912
35.23	3.99334
35.24	4.01834
35.25	4.06143
35.26	4.02919
35.27	3.98215
35.28	3.99531
35.29	4.00913
35.3	3.99761
35.31	3.99169
35.32	3.98676
35.33	3.97952
35.34	3.97426
35.35	3.98906
35.36	3.96373
35.37	3.9486
35.38	3.95912
35.39	3.93478
35.4	3.95715
35.41	3.98412
35.42	3.9861
35.43	4.02755
35.44	4.00518
35.45	3.95222
35.46	3.98149
35.47	3.97426
35.48	3.97886
35.49	3.98314
35.5	3.98248
35.51	3.98939
35.52	3.9861
35.53	3.98018
35.54	4.01439
35.55	3.9634
35.56	3.97459
35.57	4.00584
35.58	3.96735
35.59	3.9384
35.6	3.94235
35.61	3.99169
35.62	3.96143
35.63	3.97064
35.64	3.99465
35.65	3.99005
35.66	3.98018
35.67	3.95551
35.68	3.97459
35.69	3.98084
35.7	3.98018
35.71	3.97656
35.72	3.98972
35.73	3.97426
35.74	3.95649
35.75	3.95649
35.76	3.97459
35.77	3.97261
35.78	3.99005
35.79	3.98445
35.8	4.00386
35.81	3.9657
35.82	3.97228
35.83	3.98544
35.84	3.94531
35.85	3.98018
35.86	3.9611
35.87	3.96241
35.88	3.9361
35.89	3.96932
35.9	3.96011
35.91	3.97327
35.92	3.98643
35.93	3.98347
35.94	3.93018
35.95	3.9759
35.96	3.95518
35.97	3.95945
35.98	3.99695
35.99	3.98314
36	3.98577
36.01	3.95551
36.02	3.97656
36.03	3.98774
36.04	3.98939
36.05	3.96208
36.06	3.97459
36.07	3.94531
36.08	3.98709
36.09	4.0032
36.1	3.98643
36.11	3.93741
36.12	3.96636
36.13	3.96932
36.14	3.98116
36.15	3.99761
36.16	3.96899
36.17	3.9713
36.18	3.98544
36.19	3.95254
36.2	3.98215
36.21	3.96833
36.22	3.98972
36.23	3.9634
36.24	3.94991
36.25	3.97524
36.26	3.97985
36.27	3.98676
36.28	3.99465
36.29	3.98511
36.3	3.95551
36.31	3.96833
36.32	3.99564
36.33	3.99038
36.34	3.95156
36.35	3.95748
36.36	4.00452
36.37	3.97031
36.38	3.96965
36.39	4.01077
36.4	3.99103
36.41	3.98774
36.42	3.96176
36.43	4.00288
36.44	3.95189
36.45	3.94761
36.46	3.99794
36.47	3.96833
36.48	3.96472
36.49	3.96932
36.5	3.95254
36.51	3.96143
36.52	3.9713
36.53	3.97722
36.54	3.93972
36.55	4.00649
36.56	3.99893
36.57	3.99663
36.58	3.95945
36.59	3.9634
36.6	3.99136
36.61	3.97557
36.62	3.98906
36.63	3.9361
36.64	3.95945
36.65	3.9611
36.66	3.94761
36.67	3.95057
36.68	3.95583
36.69	3.94728
36.7	3.98972
36.71	3.99202
36.72	3.93577
36.73	3.96965
36.74	3.94268
36.75	3.96208
36.76	3.98051
36.77	3.97985
36.78	3.91866
36.79	3.94629
36.8	3.96537
36.81	3.96636
36.82	3.95156
36.83	3.99531
36.84	4.00222
36.85	3.99663
36.86	3.97393
36.87	3.95583
36.88	3.96537
36.89	3.9634
36.9	3.94037
36.91	3.96801
36.92	3.94202
36.93	3.97623
36.94	3.98511
36.95	4.01274
36.96	3.98741
36.97	3.97722
36.98	3.9657
36.99	3.98807
37	3.99038
37.01	3.99695
37.02	3.98445
37.03	3.98741
37.04	3.95945
37.05	3.96965
37.06	3.97195
37.07	3.97557
37.08	3.97097
37.09	4.02294
37.1	4.00189
37.11	3.95123
37.12	3.90649
37.13	3.97031
37.14	3.97162
37.15	3.99202
37.16	4.00057
37.17	3.9736
37.18	3.96965
37.19	3.9532
37.2	3.95748
37.21	3.99926
37.22	3.94333
37.23	3.96833
37.24	4.02656
37.25	3.98084
37.26	3.93906
37.27	4.01406
37.28	3.98511
37.29	3.94827
37.3	3.93347
37.31	3.99136
37.32	3.99432
37.33	3.95287
37.34	3.95814
37.35	3.97294
37.36	3.95715
37.37	3.97557
37.38	3.98939
37.39	3.9907
37.4	3.99038
37.41	4.00386
37.42	3.9884
37.43	3.97097
37.44	3.94926
37.45	3.95781
37.46	3.98215
37.47	3.96044
37.48	3.9611
37.49	4.02459
37.5	4.00024
37.51	3.99366
37.52	3.99663
37.53	3.98018
37.54	3.97557
37.55	3.96307
37.56	3.97064
37.57	3.98939
37.58	3.95682
37.59	3.96899
37.6	3.98314
37.61	3.98084
37.62	3.98873
37.63	3.96801
37.64	3.97919
37.65	3.94169
37.66	3.9657
37.67	3.99038
37.68	4.01801
37.69	4.02426
37.7	4.0157
37.71	3.9907
37.72	3.98347
37.73	3.97689
37.74	3.95518
37.75	3.9509
37.76	3.96472
37.77	3.99465
37.78	3.99794
37.79	3.97327
37.8	3.93643
37.81	3.9634
37.82	3.9713
37.83	3.96899
37.84	3.96373
37.85	3.99498
37.86	3.98281
37.87	4.01209
37.88	3.98314
37.89	3.95287
37.9	3.9884
37.91	3.9782
37.92	3.94465
37.93	3.92031
37.94	3.95551
37.95	3.97656
37.96	3.97853
37.97	3.99399
37.98	3.97787
37.99	3.96537
38	3.95156
38.01	3.96373
38.02	3.98182
38.03	3.95024
38.04	3.99136
38.05	3.96176
38.06	3.98182
38.07	3.92689
38.08	3.93478
38.09	3.9259
38.1	3.97327
38.11	3.96044
38.12	3.98741
38.13	3.9963
38.14	3.97623
38.15	3.98248
38.16	3.98018
38.17	3.95419
38.18	3.96932
38.19	3.95222
38.2	3.96702
38.21	3.97524
38.22	3.98018
38.23	3.99893
38.24	3.99038
38.25	4.03972
38.26	3.9759
38.27	3.95551
38.28	3.97294
38.29	3.9907
38.3	4.01044
38.31	3.99564
38.32	3.9657
38.33	3.96176
38.34	3.95024
38.35	3.98906
38.36	3.96176
38.37	3.99926
38.38	4.01899
38.39	3.97459
38.4	3.98774
38.41	3.98478
38.42	3.98511
38.43	3.96537
38.44	3.92886
38.45	3.99531
38.46	3.97327
38.47	3.99366
38.48	3.96866
38.49	3.95287
38.5	3.97886
38.51	3.99695
38.52	3.94399
38.53	3.96143
38.54	3.9259
38.55	3.94991
38.56	4.00255
38.57	3.98051
38.58	3.94301
38.59	3.99136
38.6	4.00452
38.61	3.9759
38.62	4.00156
38.63	3.99498
38.64	3.94366
38.65	3.9782
38.66	3.98873
38.67	3.93412
38.68	3.9509
38.69	3.9634
38.7	3.99103
38.71	3.97755
38.72	3.98807
38.73	3.99301
38.74	3.96603
38.75	3.96077
38.76	3.95189
38.77	3.9407
38.78	3.95978
38.79	3.96472
38.8	3.91439
38.81	3.99334
38.82	3.94597
38.83	3.9713
38.84	3.97261
38.85	3.94531
38.86	3.95945
38.87	3.98084
38.88	3.98939
38.89	3.94958
38.9	3.98544
38.91	3.96011
38.92	3.97294
38.93	3.93906
38.94	3.93873
38.95	3.96932
38.96	3.96603
38.97	3.99169
38.98	3.9861
38.99	3.95748
39	3.95978
39.01	3.95748
39.02	3.95781
39.03	3.97985
39.04	3.96636
39.05	3.97426
39.06	3.97228
39.07	3.98939
39.08	3.98676
39.09	3.96044
39.1	3.97064
39.11	3.98643
39.12	3.96406
39.13	3.95616
39.14	3.96833
39.15	4.00419
39.16	3.95814
39.17	3.96241
39.18	3.97524
39.19	3.98215
39.2	3.9884
39.21	4.03972
39.22	3.9588
39.23	3.96768
39.24	3.95419
39.25	3.96176
39.26	3.93379
39.27	3.93347
39.28	3.9736
39.29	3.96833
39.3	3.96505
39.31	3.9657
39.32	3.97787
39.33	3.94103
39.34	3.97097
39.35	3.97491
39.36	3.94037
39.37	3.98577
39.38	3.97755
39.39	4.00584
39.4	3.97557
39.41	3.96735
39.42	3.99893
39.43	3.98939
39.44	3.95649
39.45	3.97623
39.46	4.00222
39.47	3.97722
39.48	3.94597
39.49	3.99564
39.5	3.97524
39.51	3.97689
39.52	3.96373
39.53	3.99761
39.54	3.96143
39.55	3.9736
39.56	3.9986
39.57	3.98445
39.58	3.9486
39.59	3.97426
39.6	3.98676
39.61	3.99663
39.62	4.00945
39.63	3.94597
39.64	3.95616
39.65	3.99399
39.66	3.95814
39.67	3.94926
39.68	3.97853
39.69	3.96406
39.7	3.96932
39.71	3.98248
39.72	4.00222
39.73	4.04367
39.74	3.98084
39.75	3.95649
39.76	3.98906
39.77	3.97985
39.78	3.96965
39.79	3.96833
39.8	4.00024
39.81	4.01307
39.82	3.97491
39.83	3.97294
39.84	4.00452
39.85	3.99038
39.86	3.94333
39.87	3.95485
39.88	3.95945
39.89	3.89432
39.9	3.97097
39.91	3.95551
39.92	3.95386
39.93	3.97787
39.94	4.00715
39.95	3.96735
39.96	3.98182
39.97	3.96373
39.98	3.94958
39.99	3.95847
40	3.97755
40.01	3.97294
40.02	3.96373
40.03	3.99005
40.04	3.94958
40.05	3.98906
40.06	3.95156
40.07	3.96307
40.08	3.98182
40.09	3.97426
40.1	3.94465
40.11	3.94695
40.12	3.96702
40.13	3.93873
40.14	3.98248
40.15	4.00353
40.16	3.93807
40.17	3.95024
40.18	3.96208
40.19	3.95551
40.2	3.93281
40.21	3.94991
40.22	3.97853
40.23	3.93511
40.24	3.96932
40.25	3.97097
40.26	3.95945
40.27	3.96636
40.28	3.98676
40.29	3.95945
40.3	3.97294
40.31	3.99103
40.32	3.94629
40.33	3.94991
40.34	3.94728
40.35	3.92919
40.36	3.96537
40.37	4.00551
40.38	3.94202
40.39	3.9407
40.4	3.98248
40.41	3.99761
40.42	3.96702
40.43	3.94037
40.44	3.96537
40.45	3.96241
40.46	3.97261
40.47	3.95583
40.48	3.97689
40.49	3.97656
40.5	3.94169
40.51	3.97755
40.52	4.00682
40.53	3.97261
40.54	3.96307
40.55	3.9657
40.56	3.95189
40.57	3.94958
40.58	3.96274
40.59	3.95781
40.6	3.98906
40.61	3.99498
40.62	3.98215
40.63	3.99728
40.64	3.9782
40.65	3.97195
40.66	3.9884
40.67	3.98643
40.68	3.96373
40.69	3.95353
40.7	4.00024
40.71	3.95518
40.72	3.96143
40.73	3.93906
40.74	3.98018
40.75	3.95518
40.76	3.93708
40.77	3.97689
40.78	3.9588
40.79	3.96044
40.8	3.93972
40.81	3.96998
40.82	3.95978
40.83	3.99498
40.84	3.96965
40.85	3.94926
40.86	4.00814
40.87	4.00024
40.88	3.95945
40.89	3.96702
40.9	4.01044
40.91	3.98281
40.92	3.98939
40.93	3.96702
40.94	3.99564
40.95	3.96702
40.96	3.97853
40.97	3.99103
40.98	3.93478
40.99	3.95057
41	3.96439
41.01	3.97491
41.02	3.97294
41.03	3.95847
41.04	3.95485
41.05	3.94202
41.06	3.9611
41.07	3.96274
41.08	3.98807
41.09	3.97327
41.1	3.95781
41.11	3.94761
41.12	3.98577
41.13	3.93708
41.14	3.94662
41.15	3.96537
41.16	3.99268
41.17	3.98906
41.18	3.9407
41.19	3.96373
41.2	3.95649
41.21	3.9509
41.22	3.94333
41.23	3.97952
41.24	3.96603
41.25	3.95518
41.26	3.93774
41.27	4.0009
41.28	3.98445
41.29	3.98182
41.3	3.96603
41.31	3.98051
41.32	3.99465
41.33	3.98215
41.34	3.96307
41.35	3.95452
41.36	3.96406
41.37	3.96077
41.38	3.95978
41.39	3.98116
41.4	3.96077
41.41	3.98478
41.42	3.97426
41.43	3.97064
41.44	3.97689
41.45	4.0111
41.46	4.00222
41.47	3.98478
41.48	3.97228
41.49	3.97294
41.5	3.95287
41.51	3.95682
41.52	3.98412
41.53	3.99761
41.54	3.97557
41.55	3.9713
41.56	3.96505
41.57	3.98116
41.58	3.93281
41.59	3.95649
41.6	3.95748
41.61	3.9532
41.62	3.97294
41.63	3.95616
41.64	3.96636
41.65	4.00255
41.66	3.98347
41.67	3.95616
41.68	3.95419
41.69	3.98051
41.7	3.9657
41.71	3.94235
41.72	3.96439
41.73	3.96932
41.74	4.01603
41.75	3.95978
41.76	3.96143
41.77	3.98544
41.78	3.99432
41.79	3.9486
41.8	3.95123
41.81	3.99695
41.82	3.97722
41.83	3.9611
41.84	3.96702
41.85	3.95057
41.86	3.94366
41.87	3.95057
41.88	3.94301
41.89	3.9657
41.9	3.93643
41.91	3.93412
41.92	3.94136
41.93	3.94136
41.94	3.98511
41.95	3.97557
41.96	3.97031
41.97	3.99038
41.98	3.97459
41.99	3.98116
42	3.96439
42.01	3.94498
42.02	3.92722
42.03	3.97162
42.04	3.94103
42.05	3.93972
42.06	3.9634
42.07	3.99399
42.08	3.93577
42.09	3.94629
42.1	3.95419
42.11	3.96077
42.12	3.97327
42.13	3.95616
42.14	3.98577
42.15	3.96044
42.16	4.00156
42.17	3.97952
42.18	3.97623
42.19	3.95452
42.2	3.9782
42.21	3.9657
42.22	3.97557
42.23	4.00419
42.24	3.99366
42.25	3.95978
42.26	3.94794
42.27	3.95912
42.28	4.00814
42.29	3.96307
42.3	3.95222
42.31	3.96801
42.32	3.95189
42.33	3.98445
42.34	3.99268
42.35	3.97327
42.36	3.99202
42.37	3.98149
42.38	3.95945
42.39	3.97491
42.4	3.97162
42.41	3.98215
42.42	3.97327
42.43	3.96735
42.44	3.97787
42.45	3.93939
42.46	3.9861
42.47	3.98709
42.48	3.96735
42.49	3.94268
42.5	3.95419
42.51	3.98314
42.52	3.99597
42.53	3.9759
42.54	3.98412
42.55	3.96505
42.56	3.95715
42.57	3.93807
42.58	3.94629
42.59	3.94202
42.6	3.93412
42.61	3.96406
42.62	3.9588
42.63	3.96208
42.64	3.96702
42.65	3.96866
42.66	3.96932
42.67	3.96439
42.68	3.93807
42.69	3.93708
42.7	3.94301
42.71	3.98676
42.72	4.0111
42.73	3.98478
42.74	3.98347
42.75	3.99136
42.76	3.9713
42.77	3.97722
42.78	3.95682
42.79	3.94432
42.8	3.98149
42.81	4.00419
42.82	3.97623
42.83	3.95024
42.84	3.98445
42.85	4.00748
42.86	3.97689
42.87	3.93643
42.88	3.98347
42.89	3.97853
42.9	3.95254
42.91	3.93643
42.92	3.97722
42.93	3.98412
42.94	3.97689
42.95	3.97689
42.96	3.99695
42.97	3.99334
42.98	3.9986
42.99	3.96241
43	3.9838
43.01	3.96307
43.02	3.95814
43.03	3.96406
43.04	3.99005
43.05	3.98445
43.06	3.97919
43.07	3.98774
43.08	4.01011
43.09	3.99531
43.1	3.98018
43.11	3.96669
43.12	3.96472
43.13	3.97787
43.14	3.96439
43.15	3.95814
43.16	3.92787
43.17	3.95649
43.18	3.99268
43.19	4.00649
43.2	4.0009
43.21	3.9782
43.22	3.97853
43.23	3.98873
43.24	3.96373
43.25	3.98906
43.26	3.94695
43.27	3.97985
43.28	3.99959
43.29	4.01011
43.3	3.98511
43.31	4.03215
43.32	3.99202
43.33	3.98511
43.34	3.9611
43.35	3.95748
43.36	3.97689
43.37	3.97623
43.38	3.98215
43.39	3.93478
43.4	3.96307
43.41	3.99695
43.42	3.98248
43.43	3.98182
43.44	3.96768
43.45	3.99038
43.46	3.97623
43.47	3.9736
43.48	3.95485
43.49	3.98215
43.5	3.95912
43.51	3.99564
43.52	3.99991
43.53	4.01801
43.54	4.00551
43.55	4.0134
43.56	3.99103
43.57	3.96735
43.58	3.96965
43.59	3.96011
43.6	3.96932
43.61	3.95781
43.62	3.97195
43.63	3.98939
43.64	3.94991
43.65	3.97985
43.66	3.99761
43.67	3.99366
43.68	3.94728
43.69	3.95485
43.7	3.96866
43.71	3.95781
43.72	3.98709
43.73	3.9634
43.74	3.97623
43.75	3.98939
43.76	3.95649
43.77	3.93577
43.78	3.95583
43.79	3.98511
43.8	4.01274
43.81	3.95386
43.82	3.96439
43.83	3.9884
43.84	3.95583
43.85	4.01373
43.86	4.00452
43.87	3.97689
43.88	4.01242
43.89	4.01669
43.9	4.03018
43.91	4.02557
43.92	3.9963
43.93	3.99136
43.94	3.98643
43.95	4.00584
43.96	3.98939
43.97	4.00978
43.98	3.99301
43.99	3.98051
44	3.96011
44.01	3.91274
44.02	3.9611
44.03	3.98774
44.04	3.94629
44.05	3.95682
44.06	3.97919
44.07	3.98741
44.08	3.97722
44.09	3.96636
44.1	3.9588
44.11	3.99169
44.12	3.98676
44.13	3.97097
44.14	3.97722
44.15	3.9634
44.16	3.96307
44.17	3.97919
44.18	3.96768
44.19	3.95222
44.2	3.95485
44.21	4.00189
44.22	3.98939
44.23	3.9713
44.24	3.98478
44.25	3.96537
44.26	3.96373
44.27	3.98807
44.28	3.95452
44.29	3.94103
44.3	3.91175
44.31	3.94794
44.32	3.96932
44.33	4.00551
44.34	3.99531
44.35	3.96044
44.36	3.98149
44.37	3.96274
44.38	3.99268
44.39	3.97524
44.4	3.97985
44.41	3.97393
44.42	3.95485
44.43	3.94761
44.44	3.95583
44.45	3.98116
44.46	3.95386
44.47	3.9634
44.48	3.96965
44.49	3.98511
44.5	3.93774
44.51	3.95551
44.52	3.95419
44.53	3.93248
44.54	3.9361
44.55	3.97031
44.56	3.97787
44.57	3.96406
44.58	3.96866
44.59	3.98412
44.6	3.97886
44.61	3.9782
44.62	3.97162
44.63	3.95978
44.64	3.99235
44.65	3.95156
44.66	3.94728
44.67	3.93445
44.68	3.94037
44.69	3.94465
44.7	3.96965
44.71	3.96044
44.72	3.97228
44.73	3.96406
44.74	3.93972
44.75	3.93511
44.76	3.96899
44.77	3.9407
44.78	3.96537
44.79	3.9509
44.8	3.96406
44.81	3.96768
44.82	4.00288
44.83	3.97886
44.84	4.00814
44.85	3.96044
44.86	3.97327
44.87	3.98873
44.88	3.98709
44.89	3.97853
44.9	3.9634
44.91	3.9384
44.92	3.95847
44.93	4.02524
44.94	3.97097
44.95	3.96998
44.96	3.97722
44.97	3.98676
44.98	3.94004
44.99	3.95551
45	3.91077
45.01	3.94004
45.02	3.96899
45.03	3.99893
45.04	3.97195
45.05	4.00913
45.06	3.97426
45.07	3.98741
45.08	4.0213
45.09	3.96702
45.1	3.99038
45.11	3.97755
45.12	3.92853
45.13	3.96077
45.14	3.95518
45.15	3.94893
45.16	3.94136
45.17	3.92195
45.18	3.97985
45.19	3.96307
45.2	4.00584
45.21	3.9838
45.22	3.97426
45.23	3.95386
45.24	3.92952
45.25	3.96537
45.26	3.90781
45.27	3.9588
45.28	3.94695
45.29	3.91175
45.3	3.94728
45.31	3.97393
45.32	3.94794
45.33	3.97294
45.34	3.97294
45.35	3.97689
45.36	3.93741
45.37	3.99268
45.38	4.0009
45.39	3.99334
45.4	3.96176
45.41	3.96044
45.42	3.9305
45.43	3.97656
45.44	3.96472
45.45	3.93643
45.46	3.96702
45.47	4.00945
45.48	3.96768
45.49	3.94202
45.5	3.98215
45.51	3.97459
45.52	3.94498
45.53	3.96077
45.54	3.97886
45.55	3.96932
45.56	3.98774
45.57	3.96998
45.58	3.97064
45.59	3.96801
45.6	3.97656
45.61	3.97228
45.62	3.9986
45.63	3.96833
45.64	3.95057
45.65	3.93906
45.66	4.00156
45.67	4.01176
45.68	3.92952
45.69	3.96077
45.7	3.98412
45.71	3.99268
45.72	3.96866
45.73	3.98084
45.74	3.98873
45.75	3.95945
45.76	3.98051
45.77	3.99136
45.78	3.96208
45.79	3.96636
45.8	3.91833
45.81	3.95945
45.82	3.97557
45.83	3.97031
45.84	3.93873
45.85	3.93873
45.86	3.93478
45.87	3.97426
45.88	3.94432
45.89	3.94893
45.9	3.91866
45.91	3.92031
45.92	3.96537
45.93	3.97722
45.94	3.9611
45.95	3.97557
45.96	3.98478
45.97	3.99794
45.98	3.99564
45.99	3.96505
46	3.97459
46.01	3.95945
46.02	3.96208
46.03	3.96307
46.04	3.9838
46.05	3.94564
46.06	3.97459
46.07	3.95222
46.08	3.95485
46.09	3.93511
46.1	3.96899
46.11	3.98643
46.12	3.97919
46.13	3.92886
46.14	3.98643
46.15	3.99235
46.16	3.95912
46.17	3.95419
46.18	3.97787
46.19	3.9509
46.2	3.93478
46.21	3.97787
46.22	3.98248
46.23	3.97689
46.24	3.98149
46.25	3.95287
46.26	3.96603
46.27	3.97886
46.28	3.99268
46.29	3.94004
46.3	3.98972
46.31	3.9759
46.32	3.95814
46.33	3.9509
46.34	3.94597
46.35	3.9157
46.36	3.95452
46.37	3.95386
46.38	3.95583
46.39	3.96176
46.4	3.98939
46.41	3.9713
46.42	3.9907
46.43	3.97886
46.44	3.99235
46.45	4.00386
46.46	4.03939
46.47	4.00123
46.48	3.99235
46.49	3.96274
46.5	3.99366
46.51	3.94465
46.52	3.9782
46.53	3.96932
46.54	3.95649
46.55	3.95287
46.56	4.00715
46.57	3.99136
46.58	3.94629
46.59	3.94761
46.6	3.92623
46.61	3.94004
46.62	3.92886
46.63	3.98084
46.64	3.96176
46.65	3.96603
46.66	3.99268
46.67	3.97195
46.68	3.94794
46.69	3.96241
46.7	3.96011
46.71	3.96669
46.72	3.97261
46.73	3.98248
46.74	3.96801
46.75	3.95847
46.76	3.95024
46.77	3.95978
46.78	3.95715
46.79	3.97064
46.8	3.95781
46.81	3.93182
46.82	4.01209
46.83	3.97228
46.84	3.96439
46.85	3.9407
46.86	3.94169
46.87	3.92162
46.88	3.95123
46.89	3.97919
46.9	3.95781
46.91	3.94958
46.92	3.95156
46.93	3.97952
46.94	3.96998
46.95	3.9736
46.96	3.94958
46.97	3.95945
46.98	3.95978
46.99	3.95814
47	3.97031
47.01	3.98544
47.02	3.99498
47.03	3.95551
47.04	3.97557
47.05	3.97261
47.06	3.96866
47.07	3.97656
47.08	3.94531
47.09	3.97261
47.1	3.94893
47.11	3.94728
47.12	3.94926
47.13	3.92129
47.14	3.99136
47.15	3.95583
47.16	3.94399
47.17	3.99399
47.18	4.02097
47.19	4.01242
47.2	3.99991
47.21	4.02985
47.22	3.92985
47.23	3.98807
47.24	3.96669
47.25	3.94432
47.26	3.98478
47.27	3.95189
47.28	3.96965
47.29	3.95978
47.3	3.94761
47.31	3.97162
47.32	3.96932
47.33	3.96899
47.34	3.95518
47.35	3.96636
47.36	3.98544
47.37	4.01307
47.38	3.98445
47.39	3.96472
47.4	3.94136
47.41	3.94202
47.42	3.9713
47.43	3.96472
47.44	3.95682
47.45	3.95386
47.46	3.96373
47.47	3.97426
47.48	3.97261
47.49	3.9611
47.5	3.96472
47.51	3.99005
47.52	3.96833
47.53	3.95353
47.54	3.97261
47.55	3.94893
47.56	3.98018
47.57	3.93774
47.58	4.02228
47.59	3.98412
47.6	3.93314
47.61	3.96208
47.62	4.01636
47.63	3.96307
47.64	3.93939
47.65	3.96176
47.66	3.96472
47.67	4.00156
47.68	3.98018
47.69	3.97426
47.7	4.0134
47.71	3.97787
47.72	3.9588
47.73	3.96603
47.74	3.97261
47.75	4.00255
47.76	3.95287
47.77	3.93478
47.78	3.94794
47.79	3.98709
47.8	3.98709
47.81	3.98709
47.82	3.9713
47.83	3.94629
47.84	3.95583
47.85	3.94531
47.86	3.94794
47.87	3.96965
47.88	3.95123
47.89	3.90879
47.9	3.98577
47.91	3.95945
47.92	3.97689
47.93	3.98215
47.94	3.93248
47.95	3.93445
47.96	3.96176
47.97	3.97623
47.98	3.92787
47.99	3.94399
48	3.9759
48.01	3.99235
48.02	3.9634
48.03	3.95616
48.04	3.93972
48.05	3.96077
48.06	3.94893
48.07	3.96406
48.08	3.9782
48.09	3.9634
48.1	3.95222
48.11	3.99465
48.12	3.9509
48.13	3.95189
48.14	3.94498
48.15	3.96932
48.16	3.98347
48.17	3.99597
48.18	3.96011
48.19	3.94564
48.2	3.94004
48.21	3.93347
48.22	3.9486
48.23	3.94465
48.24	3.96307
48.25	3.95912
48.26	3.93807
48.27	3.9407
48.28	3.9305
48.29	3.96077
48.3	3.95254
48.31	3.9588
48.32	3.95715
48.33	4.0032
48.34	3.98544
48.35	3.98906
48.36	3.98511
48.37	3.96768
48.38	3.96636
48.39	3.99531
48.4	3.98281
48.41	3.97491
48.42	3.98084
48.43	3.9634
48.44	3.98281
48.45	3.99301
48.46	3.95781
48.47	3.96472
48.48	3.96176
48.49	3.93643
48.5	3.95649
48.51	3.94432
48.52	3.94958
48.53	3.96998
48.54	3.96669
48.55	3.96011
48.56	3.9486
48.57	3.96274
48.58	3.92952
48.59	3.94333
48.6	3.95518
48.61	3.97623
48.62	3.94037
48.63	3.93643
48.64	3.97853
48.65	3.94597
48.66	3.9782
48.67	3.97097
48.68	3.97623
48.69	3.97064
48.7	3.96932
48.71	3.95616
48.72	3.95945
48.73	3.97195
48.74	3.98939
48.75	3.97426
48.76	3.99432
48.77	3.96208
48.78	3.98676
48.79	3.97459
48.8	3.96307
48.81	3.93149
48.82	3.94827
48.83	3.96011
48.84	3.97195
48.85	3.99334
48.86	3.97393
48.87	3.96176
48.88	3.96932
48.89	3.96965
48.9	3.94399
48.91	3.97491
48.92	4.03215
48.93	4.00616
48.94	3.96702
48.95	3.97689
48.96	3.99728
48.97	3.94629
48.98	3.95649
48.99	3.9259
49	3.94465
49.01	3.94926
49.02	3.9407
49.03	3.95222
49.04	3.9532
49.05	3.97031
49.06	3.98412
49.07	3.95452
49.08	3.96241
49.09	3.96932
49.1	3.95189
49.11	3.93116
49.12	3.99597
49.13	3.98248
49.14	4.02031
49.15	4.01373
49.16	3.99301
49.17	3.99399
49.18	3.99399
49.19	3.9907
49.2	3.98281
49.21	3.96866
49.22	3.98018
49.23	3.93083
49.24	3.93248
49.25	3.93182
49.26	3.9407
49.27	3.97426
49.28	3.94926
49.29	3.95649
49.3	3.98182
49.31	3.93939
49.32	3.98577
49.33	3.93347
49.34	3.99301
49.35	3.94169
49.36	3.95024
49.37	3.95386
49.38	3.94399
49.39	3.96274
49.4	3.9611
49.41	3.98939
49.42	3.89827
49.43	3.93379
49.44	3.96537
49.45	3.94662
49.46	3.96833
49.47	3.9611
49.48	3.99597
49.49	3.96735
49.5	3.96768
49.51	3.95847
49.52	3.97459
49.53	3.94926
49.54	3.9384
49.55	3.93083
49.56	3.96077
49.57	3.95912
49.58	3.95485
49.59	3.97919
49.6	3.96702
49.61	3.97294
49.62	3.98314
49.63	3.94695
49.64	3.94333
49.65	3.9611
49.66	3.97261
49.67	3.93577
49.68	3.90781
49.69	3.92261
49.7	3.95057
49.71	3.94136
49.72	3.91768
49.73	3.95156
49.74	3.94827
49.75	3.95583
49.76	3.94465
49.77	4.01406
49.78	3.97952
49.79	3.98511
49.8	3.94597
49.81	3.97426
49.82	3.99169
49.83	3.9407
49.84	3.95452
49.85	3.97985
49.86	3.9634
49.87	3.93347
49.88	3.92031
49.89	3.96274
49.9	3.95189
49.91	3.94991
49.92	3.95616
49.93	3.96833
49.94	3.93643
49.95	3.97327
49.96	3.95978
49.97	3.9634
49.98	3.9532
49.99	3.95452
50	3.9713
