"BIO-KINE ASCII FILE"
"_COMMENT"	"MOS-500 Spectrometer"
"_COMMENT"	"Kinetics measurement"
"_COMMENT"	"Y Unit : Volt,  X Unit : s"
"_COMMENT"	"Excitation wavelength : 380 nm"
"_COMMENT"	"Fentes bandwidth =  1 nm"
"_COMMENT"	"HV= 1000V"
"_COMMENT"	"Timebase  1 =  .01 s   5001 pts"
"_SFM"	"SFM-400 /S  Advanced mode"
"_SFM"	"Ratio : S1: 2.5, S2: 0, S3: 0, S4: 1"
"_SFM"	"Content : S1: , S2: , S3: , S4:"
"_SFM"	"Concentration : S1: , S2: , S3: , S4:"
"_SFM"	"Total volume : 209 µl  Flow : 3.5 mL/s"
"_SFM"	"Acquisition start :  10 ms before stop"
"_SFM"	"cuve=FC-15, s1=10 ml , s2=10 ml , s3=10 ml , s4=1.9 ml"
"_UNITX"	"s"
"_UNITY"	"Volt"
"_DELTAX"	0
"_DATA"
1e-300	8.17503
0.01	8.45366
0.02	8.57076
0.03	8.71649
0.04	8.80169
0.05	8.80926
0.06	8.83393
0.07	8.84314
0.08	8.8711
0.09	8.89742
0.1	8.90202
0.11	8.89347
0.12	8.88426
0.13	8.87669
0.14	8.91551
0.15	8.86321
0.16	8.91255
0.17	8.94413
0.18	8.93426
0.19	8.90564
0.2	8.86946
0.21	8.93919
0.22	8.89742
0.23	8.8961
0.24	8.91814
0.25	8.94117
0.26	8.91485
0.27	8.96288
0.28	8.9609
0.29	8.90202
0.3	8.9313
0.31	8.8984
0.32	8.9359
0.33	8.86978
0.34	8.8257
0.35	8.88886
0.36	8.88755
0.37	8.88393
0.38	8.81814
0.39	8.88525
0.4	8.89742
0.41	8.86288
0.42	8.85301
0.43	8.86748
0.44	8.86156
0.45	8.87538
0.46	8.89577
0.47	8.85663
0.48	8.84676
0.49	8.76847
0.5	8.84149
0.51	8.83393
0.52	8.79511
0.53	8.8211
0.54	8.76156
0.55	8.84051
0.56	8.87406
0.57	8.76057
0.58	8.78097
0.59	8.77373
0.6	8.84544
0.61	8.79906
0.62	8.84413
0.63	8.76419
0.64	8.7859
0.65	8.7961
0.66	8.81419
0.67	8.7757
0.68	8.83524
0.69	8.76781
0.7	8.73689
0.71	8.76978
0.72	8.80695
0.73	8.7813
0.74	8.8188
0.75	8.76978
0.76	8.73985
0.77	8.77143
0.78	8.76583
0.79	8.74182
0.8	8.70564
0.81	8.69445
0.82	8.75005
0.83	8.72472
0.84	8.77998
0.85	8.71945
0.86	8.69906
0.87	8.66649
0.88	8.68162
0.89	8.63952
0.9	8.653
0.91	8.65531
0.92	8.67471
0.93	8.69939
0.94	8.67142
0.95	8.69939
0.96	8.64313
0.97	8.67208
0.98	8.64248
0.99	8.62438
1	8.58886
1.01	8.63557
1.02	8.65761
1.03	8.63952
1.04	8.67439
1.05	8.6461
1.06	8.69281
1.07	8.60037
1.08	8.60761
1.09	8.64215
1.1	8.59511
1.11	8.64971
1.12	8.66123
1.13	8.6234
1.14	8.65662
1.15	8.60662
1.16	8.53853
1.17	8.57471
1.18	8.63886
1.19	8.60925
1.2	8.60629
1.21	8.61057
1.22	8.54149
1.23	8.56254
1.24	8.58261
1.25	8.54642
1.26	8.57274
1.27	8.54971
1.28	8.528
1.29	8.54346
1.3	8.50662
1.31	8.5859
1.32	8.56846
1.33	8.55333
1.34	8.59609
1.35	8.53261
1.36	8.50859
1.37	8.54511
1.38	8.57669
1.39	8.53326
1.4	8.50103
1.41	8.48458
1.42	8.52603
1.43	8.47997
1.44	8.4701
1.45	8.51616
1.46	8.45793
1.47	8.46747
1.48	8.52109
1.49	8.47339
1.5	8.49149
1.51	8.52932
1.52	8.48228
1.53	8.46945
1.54	8.50958
1.55	8.49642
1.56	8.49214
1.57	8.47471
1.58	8.47109
1.59	8.42339
1.6	8.48425
1.61	8.47405
1.62	8.41484
1.63	8.46451
1.64	8.48228
1.65	8.41385
1.66	8.45859
1.67	8.40563
1.68	8.45563
1.69	8.43984
1.7	8.4201
1.71	8.4132
1.72	8.33589
1.73	8.37734
1.74	8.38787
1.75	8.36583
1.76	8.41024
1.77	8.43392
1.78	8.40464
1.79	8.35333
1.8	8.38787
1.81	8.40333
1.82	8.4632
1.83	8.3474
1.84	8.36122
1.85	8.37241
1.86	8.37504
1.87	8.35267
1.88	8.34148
1.89	8.33721
1.9	8.38556
1.91	8.39741
1.92	8.34017
1.93	8.38162
1.94	8.33523
1.95	8.34313
1.96	8.34083
1.97	8.25234
1.98	8.26714
1.99	8.3349
2	8.2951
2.01	8.36221
2.02	8.34148
2.03	8.31155
2.04	8.3405
2.05	8.31122
2.06	8.30431
2.07	8.37931
2.08	8.31385
2.09	8.26911
2.1	8.28819
2.11	8.25661
2.12	8.25661
2.13	8.2428
2.14	8.28096
2.15	8.2905
2.16	8.28425
2.17	8.21352
2.18	8.27569
2.19	8.24773
2.2	8.26484
2.21	8.25102
2.22	8.25201
2.23	8.31056
2.24	8.28918
2.25	8.28194
2.26	8.22141
2.27	8.20826
2.28	8.23622
2.29	8.22964
2.3	8.18589
2.31	8.19937
2.32	8.21878
2.33	8.22503
2.34	8.22964
2.35	8.2303
2.36	8.21089
2.37	8.19444
2.38	8.20563
2.39	8.16286
2.4	8.20102
2.41	8.21089
2.42	8.15727
2.43	8.13293
2.44	8.12437
2.45	8.16319
2.46	8.20003
2.47	8.17832
2.48	8.21023
2.49	8.15069
2.5	8.08556
2.51	8.11944
2.52	8.14411
2.53	8.14082
2.54	8.10102
2.55	8.10924
2.56	8.0701
2.57	8.05924
2.58	8.14181
2.59	8.21484
2.6	8.12931
2.61	8.12668
2.62	8.1201
2.63	8.12108
2.64	8.05891
2.65	8.05398
2.66	8.08128
2.67	8.13753
2.68	8.10365
2.69	8.08786
2.7	8.04773
2.71	8.09904
2.72	8.10694
2.73	8.07931
2.74	8.13556
2.75	8.10793
2.76	8.04345
2.77	8.06582
2.78	8.06582
2.79	8.1201
2.8	8.03325
2.81	8.06845
2.82	8.01944
2.83	8.03588
2.84	8.05102
2.85	8.06319
2.86	8.00562
2.87	8.02338
2.88	8.09444
2.89	8.07174
2.9	8.05266
2.91	8.02931
2.92	8.03128
2.93	8.05365
2.94	8.04082
2.95	8.04345
2.96	8.03029
2.97	8.01088
2.98	8.00562
2.99	8.03128
3	8.02996
3.01	8.01384
3.02	8.00167
3.03	7.99871
3.04	8.03654
3.05	8.01417
3.06	8.00299
3.07	8.04477
3.08	8.01417
3.09	7.97009
3.1	7.97536
3.11	7.9497
3.12	7.93818
3.13	7.95529
3.14	7.95694
3.15	7.98062
3.16	7.99246
3.17	7.94443
3.18	7.97569
3.19	8.00036
3.2	7.94016
3.21	7.92536
3.22	7.97865
3.23	8.00003
3.24	7.98292
3.25	7.93029
3.26	7.88818
3.27	7.9543
3.28	7.93457
3.29	7.91121
3.3	7.95068
3.31	7.91713
3.32	7.92864
3.33	7.88555
3.34	7.91812
3.35	7.90595
3.36	7.90595
3.37	7.96253
3.38	7.91911
3.39	7.96417
3.4	7.91286
3.41	7.94378
3.42	7.92897
3.43	7.8418
3.44	7.88522
3.45	7.86516
3.46	7.91713
3.47	7.88424
3.48	7.87272
3.49	7.86878
3.5	7.79608
3.51	7.93193
3.52	7.89147
3.53	7.8793
3.54	7.92568
3.55	7.89016
3.56	7.83489
3.57	7.8691
3.58	7.8622
3.59	7.84805
3.6	7.82305
3.61	7.81844
3.62	7.85233
3.63	7.8441
3.64	7.85858
3.65	7.87272
3.66	7.86417
3.67	7.84443
3.68	7.85068
3.69	7.83884
3.7	7.79805
3.71	7.81384
3.72	7.80233
3.73	7.78917
3.74	7.84575
3.75	7.79937
3.76	7.76384
3.77	7.8441
3.78	7.83391
3.79	7.8191
3.8	7.80397
3.81	7.76384
3.82	7.77798
3.83	7.81516
3.84	7.81022
3.85	7.81713
3.86	7.71581
3.87	7.69015
3.88	7.71844
3.89	7.74147
3.9	7.75002
3.91	7.77502
3.92	7.73982
3.93	7.75035
3.94	7.77996
3.95	7.7714
3.96	7.75726
3.97	7.78062
3.98	7.79213
3.99	7.71088
4	7.7566
4.01	7.74838
4.02	7.70035
4.03	7.65627
4.04	7.72831
4.05	7.73917
4.06	7.70824
4.07	7.75101
4.08	7.69476
4.09	7.68226
4.1	7.7043
4.11	7.72732
4.12	7.727
4.13	7.79739
4.14	7.72305
4.15	7.64903
4.16	7.69476
4.17	7.69246
4.18	7.68094
4.19	7.67107
4.2	7.71713
4.21	7.70792
4.22	7.70792
4.23	7.71614
4.24	7.6566
4.25	7.67338
4.26	7.71022
4.27	7.68884
4.28	7.63489
4.29	7.61318
4.3	7.64377
4.31	7.66745
4.32	7.62798
4.33	7.65199
4.34	7.62962
4.35	7.6214
4.36	7.6487
4.37	7.67634
4.38	7.63489
4.39	7.63094
4.4	7.62601
4.41	7.65857
4.42	7.67305
4.43	7.68127
4.44	7.68193
4.45	7.6589
4.46	7.63061
4.47	7.60265
4.48	7.63193
4.49	7.69542
4.5	7.63357
4.51	7.59508
4.52	7.54903
4.53	7.60528
4.54	7.6168
4.55	7.61449
4.56	7.6214
4.57	7.6191
4.58	7.58719
4.59	7.63522
4.6	7.60726
4.61	7.55396
4.62	7.57272
4.63	7.56975
4.64	7.56087
4.65	7.61778
4.66	7.62469
4.67	7.63489
4.68	7.61186
4.69	7.58883
4.7	7.60956
4.71	7.63752
4.72	7.55199
4.73	7.51449
4.74	7.60133
4.75	7.57535
4.76	7.59147
4.77	7.59278
4.78	7.54673
4.79	7.55561
4.8	7.60429
4.81	7.58225
4.82	7.55956
4.83	7.52798
4.84	7.56745
4.85	7.52699
4.86	7.54278
4.87	7.59804
4.88	7.57436
4.89	7.51975
4.9	7.50429
4.91	7.57107
4.92	7.54377
4.93	7.50035
4.94	7.51515
4.95	7.50528
4.96	7.51186
4.97	7.49442
4.98	7.53324
4.99	7.51975
5	7.57436
5.01	7.56515
5.02	7.50002
5.03	7.49311
5.04	7.50758
5.05	7.50758
5.06	7.55824
5.07	7.53192
5.08	7.56482
5.09	7.49344
5.1	7.51712
5.11	7.57272
5.12	7.50331
5.13	7.50692
5.14	7.44311
5.15	7.44837
5.16	7.46252
5.17	7.47995
5.18	7.49311
5.19	7.47567
5.2	7.49146
5.21	7.47238
5.22	7.5066
5.23	7.44409
5.24	7.43488
5.25	7.48456
5.26	7.46515
5.27	7.46811
5.28	7.48061
5.29	7.48982
5.3	7.45429
5.31	7.48521
5.32	7.47107
5.33	7.551
5.34	7.42172
5.35	7.38422
5.36	7.41712
5.37	7.43883
5.38	7.41745
5.39	7.47304
5.4	7.46712
5.41	7.46284
5.42	7.47238
5.43	7.47765
5.44	7.41646
5.45	7.43982
5.46	7.40857
5.47	7.42732
5.48	7.44113
5.49	7.42534
5.5	7.43521
5.51	7.40593
5.52	7.41909
5.53	7.40001
5.54	7.41712
5.55	7.39607
5.56	7.37567
5.57	7.40067
5.58	7.38093
5.59	7.41284
5.6	7.42896
5.61	7.4135
5.62	7.38291
5.63	7.39113
5.64	7.43587
5.65	7.38982
5.66	7.35955
5.67	7.44146
5.68	7.4487
5.69	7.4135
5.7	7.41054
5.71	7.42699
5.72	7.37074
5.73	7.32172
5.74	7.38258
5.75	7.38357
5.76	7.36547
5.77	7.35889
5.78	7.39837
5.79	7.40396
5.8	7.33521
5.81	7.34014
5.82	7.33225
5.83	7.34508
5.84	7.36153
5.85	7.40626
5.86	7.40462
5.87	7.36087
5.88	7.35593
5.89	7.30198
5.9	7.36909
5.91	7.33916
5.92	7.36482
5.93	7.36218
5.94	7.37896
5.95	7.32567
5.96	7.37534
5.97	7.36876
5.98	7.35626
5.99	7.30495
6	7.34574
6.01	7.27863
6.02	7.29343
6.03	7.37107
6.04	7.32172
6.05	7.28291
6.06	7.2704
6.07	7.29804
6.08	7.32238
6.09	7.3681
6.1	7.33685
6.11	7.35297
6.12	7.33916
6.13	7.32172
6.14	7.30198
6.15	7.32337
6.16	7.33225
6.17	7.31909
6.18	7.31416
6.19	7.26975
6.2	7.29277
6.21	7.28258
6.22	7.28916
6.23	7.27271
6.24	7.27369
6.25	7.32567
6.26	7.33027
6.27	7.2931
6.28	7.27172
6.29	7.28258
6.3	7.2635
6.31	7.25889
6.32	7.24146
6.33	7.26087
6.34	7.24869
6.35	7.28159
6.36	7.251
6.37	7.32271
6.38	7.35001
6.39	7.28948
6.4	7.28225
6.41	7.24935
6.42	7.23521
6.43	7.23159
6.44	7.19277
6.45	7.27567
6.46	7.28817
6.47	7.22238
6.48	7.22172
6.49	7.27863
6.5	7.26744
6.51	7.19573
6.52	7.29277
6.53	7.23915
6.54	7.26514
6.55	7.27402
6.56	7.26415
6.57	7.23225
6.58	7.19475
6.59	7.21382
6.6	7.20889
6.61	7.21054
6.62	7.24869
6.63	7.20988
6.64	7.21415
6.65	7.19014
6.66	7.18521
6.67	7.21547
6.68	7.17303
6.69	7.21942
6.7	7.22007
6.71	7.25231
6.72	7.22468
6.73	7.14178
6.74	7.17139
6.75	7.1533
6.76	7.20132
6.77	7.19606
6.78	7.18718
6.79	7.15198
6.8	7.16547
6.81	7.1227
6.82	7.21646
6.83	7.24672
6.84	7.19639
6.85	7.16415
6.86	7.20132
6.87	7.18751
6.88	7.19113
6.89	7.13948
6.9	7.09639
6.91	7.11481
6.92	7.16284
6.93	7.17007
6.94	7.18455
6.95	7.22007
6.96	7.18455
6.97	7.15067
6.98	7.1931
6.99	7.14244
7	7.14441
7.01	7.1829
7.02	7.1533
7.03	7.1556
7.04	7.1556
7.05	7.16481
7.06	7.17106
7.07	7.13488
7.08	7.12501
7.09	7.15067
7.1	7.13751
7.11	7.14803
7.12	7.15856
7.13	7.12632
7.14	7.14211
7.15	7.1556
7.16	7.09836
7.17	7.14968
7.18	7.18849
7.19	7.17139
7.2	7.12237
7.21	7.13027
7.22	7.11119
7.23	7.10658
7.24	7.09112
7.25	7.12237
7.26	7.11119
7.27	7.1658
7.28	7.14902
7.29	7.12106
7.3	7.09507
7.31	7.08093
7.32	7.14672
7.33	7.09672
7.34	7.10494
7.35	7.14441
7.36	7.08915
7.37	7.09606
7.38	7.10987
7.39	7.07172
7.4	7.0431
7.41	7.08718
7.42	7.11678
7.43	7.08685
7.44	7.12632
7.45	7.07106
7.46	7.06711
7.47	7.06382
7.48	7.10955
7.49	7.13224
7.5	7.1102
7.51	7.1227
7.52	7.09178
7.53	7.10658
7.54	7.09014
7.55	7.06645
7.56	7.12073
7.57	7.09408
7.58	7.08948
7.59	7.09277
7.6	7.05724
7.61	7.04211
7.62	7.07895
7.63	7.14968
7.64	7.10922
7.65	7.01579
7.66	7.03915
7.67	7.05099
7.68	7.05
7.69	7.10099
7.7	7.11941
7.71	7.07106
7.72	7.02665
7.73	7.06053
7.74	7.06579
7.75	7.07007
7.76	7.06053
7.77	7.08191
7.78	7.08191
7.79	7.02533
7.8	7.10231
7.81	7.02336
7.82	7.01415
7.83	7.06612
7.84	7.03783
7.85	7.06283
7.86	7.05132
7.87	7.03093
7.88	7.05099
7.89	7.04014
7.9	7.04803
7.91	7.07237
7.92	7.02895
7.93	7.05658
7.94	6.9977
7.95	7.0602
7.96	7.04573
7.97	7.04244
7.98	6.99178
7.99	7.01908
8	7.11678
8.01	7.06415
8.02	7.07632
8.03	7.01579
8.04	7.02204
8.05	7.03356
8.06	6.99342
8.07	7.00592
8.08	6.98915
8.09	7.07961
8.1	7.05527
8.11	7.02994
8.12	7.02007
8.13	6.97599
8.14	7.02961
8.15	7.04079
8.16	6.99573
8.17	6.98059
8.18	6.95099
8.19	6.98158
8.2	6.9931
8.21	7.01283
8.22	7.02994
8.23	7.04244
8.24	7.00066
8.25	7.02665
8.26	6.97434
8.27	7.02994
8.28	6.97073
8.29	6.95362
8.3	6.93191
8.31	7.02435
8.32	7.01152
8.33	7.03553
8.34	6.98816
8.35	6.95987
8.36	7.02336
8.37	6.97007
8.38	7.02599
8.39	7.01185
8.4	6.96744
8.41	6.92533
8.42	6.94441
8.43	6.98915
8.44	7.01086
8.45	6.95658
8.46	6.92599
8.47	6.92994
8.48	6.97007
8.49	6.97862
8.5	6.93816
8.51	6.95362
8.52	6.95855
8.53	6.94605
8.54	6.98454
8.55	6.92072
8.56	7.00494
8.57	6.95033
8.58	6.97698
8.59	6.95198
8.6	6.92632
8.61	6.97994
8.62	6.96513
8.63	6.92204
8.64	6.9579
8.65	6.95165
8.66	6.93553
8.67	6.89243
8.68	6.94408
8.69	6.97731
8.7	6.95494
8.71	6.9454
8.72	6.93684
8.73	6.94573
8.74	6.98092
8.75	6.93783
8.76	6.93323
8.77	6.90461
8.78	6.88289
8.79	6.88783
8.8	6.94342
8.81	6.9125
8.82	6.93717
8.83	6.92072
8.84	6.9329
8.85	6.88158
8.86	6.91283
8.87	6.90559
8.88	6.9329
8.89	6.91119
8.9	6.94638
8.91	6.95625
8.92	6.97303
8.93	7.00658
8.94	6.89671
8.95	6.87204
8.96	6.90428
8.97	6.91941
8.98	6.91645
8.99	6.91974
9	6.90822
9.01	6.92697
9.02	6.94474
9.03	6.89474
9.04	6.92237
9.05	6.99375
9.06	6.87632
9.07	6.92829
9.08	6.95395
9.09	6.89112
9.1	6.89638
9.11	6.90954
9.12	6.89901
9.13	6.925
9.14	6.85493
9.15	6.88388
9.16	6.87434
9.17	6.89441
9.18	6.9329
9.19	6.90526
9.2	6.9079
9.21	6.89145
9.22	6.89836
9.23	6.8875
9.24	6.94638
9.25	6.89572
9.26	6.90724
9.27	6.86349
9.28	6.92105
9.29	6.93454
9.3	6.89507
9.31	6.85789
9.32	6.85263
9.33	6.88026
9.34	6.88388
9.35	6.92237
9.36	6.88355
9.37	6.91809
9.38	6.89145
9.39	6.86085
9.4	6.86414
9.41	6.89507
9.42	6.83651
9.43	6.88322
9.44	6.89408
9.45	6.85724
9.46	6.83322
9.47	6.80888
9.48	6.80131
9.49	6.85263
9.5	6.83092
9.51	6.84671
9.52	6.85428
9.53	6.84013
9.54	6.90888
9.55	6.88388
9.56	6.82927
9.57	6.84704
9.58	6.86776
9.59	6.86941
9.6	6.89605
9.61	6.89671
9.62	6.8296
9.63	6.85033
9.64	6.8546
9.65	6.83783
9.66	6.84079
9.67	6.83224
9.68	6.85658
9.69	6.85592
9.7	6.81447
9.71	6.85
9.72	6.85724
9.73	6.80526
9.74	6.83092
9.75	6.84737
9.76	6.81612
9.77	6.82335
9.78	6.84572
9.79	6.87632
9.8	6.81447
9.81	6.77697
9.82	6.80033
9.83	6.85789
9.84	6.90165
9.85	6.88355
9.86	6.85625
9.87	6.87303
9.88	6.81743
9.89	6.775
9.9	6.82204
9.91	6.82105
9.92	6.83849
9.93	6.87105
9.94	6.8421
9.95	6.78717
9.96	6.82072
9.97	6.79079
9.98	6.78289
9.99	6.87566
10	6.82631
10.01	6.87763
10.02	6.83158
10.03	6.82171
10.04	6.80329
10.05	6.78322
10.06	6.83092
10.07	6.88618
10.08	6.81513
10.09	6.79177
10.1	6.80592
10.11	6.82105
10.12	6.80164
10.13	6.77993
10.14	6.74539
10.15	6.81085
10.16	6.84539
10.17	6.81546
10.18	6.83816
10.19	6.84474
10.2	6.84605
10.21	6.8546
10.22	6.84309
10.23	6.77204
10.24	6.78684
10.25	6.80658
10.26	6.80526
10.27	6.7671
10.28	6.78816
10.29	6.80131
10.3	6.77434
10.31	6.84737
10.32	6.8227
10.33	6.81842
10.34	6.77894
10.35	6.82302
10.36	6.76381
10.37	6.73651
10.38	6.83191
10.39	6.79539
10.4	6.78487
10.41	6.81414
10.42	6.79967
10.43	6.79145
10.44	6.80493
10.45	6.79243
10.46	6.75362
10.47	6.75197
10.48	6.75296
10.49	6.7671
10.5	6.78684
10.51	6.77434
10.52	6.76151
10.53	6.77039
10.54	6.77171
10.55	6.76348
10.56	6.79342
10.57	6.78059
10.58	6.75592
10.59	6.82335
10.6	6.8
10.61	6.77105
10.62	6.77664
10.63	6.78388
10.64	6.72171
10.65	6.75855
10.66	6.77566
10.67	6.80329
10.68	6.78289
10.69	6.7796
10.7	6.77894
10.71	6.75855
10.72	6.78026
10.73	6.70855
10.74	6.71579
10.75	6.8023
10.76	6.7546
10.77	6.7421
10.78	6.73552
10.79	6.69407
10.8	6.71217
10.81	6.79046
10.82	6.80329
10.83	6.80197
10.84	6.82434
10.85	6.73914
10.86	6.71414
10.87	6.79967
10.88	6.73783
10.89	6.70986
10.9	6.74079
10.91	6.75065
10.92	6.73585
10.93	6.73618
10.94	6.76447
10.95	6.77631
10.96	6.77993
10.97	6.77631
10.98	6.73585
10.99	6.72664
11	6.71579
11.01	6.76546
11.02	6.75197
11.03	6.74835
11.04	6.7625
11.05	6.74309
11.06	6.7671
11.07	6.72894
11.08	6.70526
11.09	6.76908
11.1	6.72138
11.11	6.70888
11.12	6.70756
11.13	6.76381
11.14	6.71348
11.15	6.7319
11.16	6.78026
11.17	6.77237
11.18	6.79276
11.19	6.69539
11.2	6.72335
11.21	6.725
11.22	6.70855
11.23	6.72302
11.24	6.68618
11.25	6.72796
11.26	6.72204
11.27	6.74539
11.28	6.75723
11.29	6.74144
11.3	6.70164
11.31	6.68782
11.32	6.69473
11.33	6.72236
11.34	6.78223
11.35	6.72993
11.36	6.65427
11.37	6.70953
11.38	6.68585
11.39	6.71085
11.4	6.7194
11.41	6.73684
11.42	6.66743
11.43	6.66842
11.44	6.71809
11.45	6.68388
11.46	6.70986
11.47	6.73585
11.48	6.74835
11.49	6.71579
11.5	6.68947
11.51	6.70493
11.52	6.76513
11.53	6.70065
11.54	6.71809
11.55	6.7023
11.56	6.74934
11.57	6.76283
11.58	6.69539
11.59	6.67861
11.6	6.67368
11.61	6.69407
11.62	6.70855
11.63	6.71414
11.64	6.72532
11.65	6.68947
11.66	6.67105
11.67	6.72072
11.68	6.67467
11.69	6.64539
11.7	6.66578
11.71	6.64506
11.72	6.7319
11.73	6.69539
11.74	6.6944
11.75	6.63749
11.76	6.69671
11.77	6.73486
11.78	6.67927
11.79	6.68486
11.8	6.69407
11.81	6.72532
11.82	6.68848
11.83	6.68782
11.84	6.71743
11.85	6.71118
11.86	6.69407
11.87	6.67401
11.88	6.62828
11.89	6.70263
11.9	6.67598
11.91	6.6648
11.92	6.67927
11.93	6.6898
11.94	6.70756
11.95	6.69703
11.96	6.70986
11.97	6.68388
11.98	6.70986
11.99	6.64506
12	6.67631
12.01	6.62499
12.02	6.6648
12.03	6.70493
12.04	6.71414
12.05	6.63322
12.06	6.61973
12.07	6.66644
12.08	6.71776
12.09	6.66381
12.1	6.7148
12.11	6.66578
12.12	6.62664
12.13	6.62039
12.14	6.64309
12.15	6.69309
12.16	6.71743
12.17	6.71579
12.18	6.69703
12.19	6.6523
12.2	6.69046
12.21	6.66973
12.22	6.66809
12.23	6.65789
12.24	6.66019
12.25	6.64243
12.26	6.64572
12.27	6.6796
12.28	6.65986
12.29	6.62401
12.3	6.67072
12.31	6.70625
12.32	6.68223
12.33	6.67565
12.34	6.68092
12.35	6.62236
12.36	6.62499
12.37	6.68223
12.38	6.69342
12.39	6.62105
12.4	6.61447
12.41	6.69375
12.42	6.6671
12.43	6.71447
12.44	6.64078
12.45	6.64473
12.46	6.6444
12.47	6.6569
12.48	6.67006
12.49	6.59835
12.5	6.61677
12.51	6.69309
12.52	6.67565
12.53	6.62006
12.54	6.64934
12.55	6.63355
12.56	6.62927
12.57	6.67499
12.58	6.69539
12.59	6.65197
12.6	6.63223
12.61	6.63684
12.62	6.61907
12.63	6.64309
12.64	6.62532
12.65	6.63782
12.66	6.62466
12.67	6.63815
12.68	6.64473
12.69	6.64045
12.7	6.62302
12.71	6.62006
12.72	6.60394
12.73	6.60558
12.74	6.61776
12.75	6.64703
12.76	6.64506
12.77	6.63387
12.78	6.62598
12.79	6.66513
12.8	6.62664
12.81	6.59407
12.82	6.61315
12.83	6.61282
12.84	6.60262
12.85	6.6796
12.86	6.65624
12.87	6.65855
12.88	6.65295
12.89	6.6296
12.9	6.6273
12.91	6.65197
12.92	6.64901
12.93	6.5921
12.94	6.64572
12.95	6.64177
12.96	6.65328
12.97	6.63749
12.98	6.64374
12.99	6.64013
13	6.61677
13.01	6.6421
13.02	6.61776
13.03	6.62697
13.04	6.6296
13.05	6.59473
13.06	6.57368
13.07	6.60197
13.08	6.62006
13.09	6.61348
13.1	6.56644
13.11	6.63914
13.12	6.61776
13.13	6.58716
13.14	6.61677
13.15	6.62368
13.16	6.62137
13.17	6.66315
13.18	6.59473
13.19	6.60328
13.2	6.60657
13.21	6.59243
13.22	6.57697
13.23	6.63387
13.24	6.58552
13.25	6.59769
13.26	6.63124
13.27	6.58552
13.28	6.62894
13.29	6.62401
13.3	6.61249
13.31	6.58157
13.32	6.57039
13.33	6.55756
13.34	6.58124
13.35	6.6046
13.36	6.65592
13.37	6.56512
13.38	6.58914
13.39	6.64177
13.4	6.59341
13.41	6.56775
13.42	6.64243
13.43	6.6296
13.44	6.58848
13.45	6.61743
13.46	6.61809
13.47	6.61776
13.48	6.58486
13.49	6.63289
13.5	6.59637
13.51	6.62565
13.52	6.59407
13.53	6.5842
13.54	6.57368
13.55	6.59177
13.56	6.63749
13.57	6.62861
13.58	6.58881
13.59	6.62401
13.6	6.61183
13.61	6.57433
13.62	6.54012
13.63	6.61151
13.64	6.56085
13.65	6.55986
13.66	6.59637
13.67	6.57828
13.68	6.56447
13.69	6.5967
13.7	6.58519
13.71	6.59276
13.72	6.57368
13.73	6.58782
13.74	6.58387
13.75	6.6023
13.76	6.60591
13.77	6.58256
13.78	6.53914
13.79	6.56118
13.8	6.59374
13.81	6.61907
13.82	6.59012
13.83	6.58848
13.84	6.54835
13.85	6.55262
13.86	6.56808
13.87	6.5171
13.88	6.59374
13.89	6.53979
13.9	6.60295
13.91	6.61414
13.92	6.5319
13.93	6.55328
13.94	6.55493
13.95	6.56315
13.96	6.59078
13.97	6.574
13.98	6.58289
13.99	6.55591
14	6.58519
14.01	6.67565
14.02	6.5921
14.03	6.52433
14.04	6.57466
14.05	6.55427
14.06	6.54308
14.07	6.59966
14.08	6.56348
14.09	6.60197
14.1	6.56973
14.11	6.54506
14.12	6.55427
14.13	6.55558
14.14	6.56381
14.15	6.574
14.16	6.56578
14.17	6.59572
14.18	6.60855
14.19	6.57368
14.2	6.56414
14.21	6.56447
14.22	6.55427
14.23	6.55427
14.24	6.59605
14.25	6.56381
14.26	6.53552
14.27	6.6023
14.28	6.58815
14.29	6.53058
14.3	6.55295
14.31	6.54802
14.32	6.55953
14.33	6.56381
14.34	6.59539
14.35	6.54966
14.36	6.53585
14.37	6.54802
14.38	6.56315
14.39	6.56381
14.4	6.56644
14.41	6.56611
14.42	6.58716
14.43	6.56282
14.44	6.59177
14.45	6.53453
14.46	6.58124
14.47	6.58618
14.48	6.57433
14.49	6.58651
14.5	6.55262
14.51	6.55328
14.52	6.56479
14.53	6.57433
14.54	6.57104
14.55	6.57137
14.56	6.59078
14.57	6.55394
14.58	6.59802
14.59	6.54111
14.6	6.57368
14.61	6.56644
14.62	6.59539
14.63	6.55361
14.64	6.54012
14.65	6.52696
14.66	6.60953
14.67	6.59769
14.68	6.55131
14.69	6.53716
14.7	6.54966
14.71	6.57532
14.72	6.55361
14.73	6.59308
14.74	6.57335
14.75	6.59539
14.76	6.58881
14.77	6.58026
14.78	6.5615
14.79	6.55098
14.8	6.53157
14.81	6.55098
14.82	6.52367
14.83	6.56282
14.84	6.56775
14.85	6.5819
14.86	6.57039
14.87	6.55032
14.88	6.54275
14.89	6.4763
14.9	6.48288
14.91	6.49045
14.92	6.51874
14.93	6.51677
14.94	6.54045
14.95	6.52894
14.96	6.62105
14.97	6.57269
14.98	6.51216
14.99	6.5694
15	6.56512
15.01	6.55986
15.02	6.54012
15.03	6.57433
15.04	6.53058
15.05	6.55164
15.06	6.53025
15.07	6.5365
15.08	6.53321
15.09	6.51348
15.1	6.58354
15.11	6.54999
15.12	6.56019
15.13	6.55657
15.14	6.55525
15.15	6.55854
15.16	6.52565
15.17	6.56841
15.18	6.57565
15.19	6.54802
15.2	6.50098
15.21	6.52532
15.22	6.54835
15.23	6.54243
15.24	6.55098
15.25	6.54111
15.26	6.5694
15.27	6.5365
15.28	6.48519
15.29	6.5217
15.3	6.56447
15.31	6.53091
15.32	6.51775
15.33	6.50492
15.34	6.54275
15.35	6.53848
15.36	6.57368
15.37	6.51973
15.38	6.55262
15.39	6.49506
15.4	6.48782
15.41	6.48716
15.42	6.49769
15.43	6.49769
15.44	6.49637
15.45	6.57598
15.46	6.50361
15.47	6.51216
15.48	6.57697
15.49	6.54736
15.5	6.50591
15.51	6.50295
15.52	6.50492
15.53	6.51874
15.54	6.52071
15.55	6.50788
15.56	6.53223
15.57	6.53519
15.58	6.5342
15.59	6.58519
15.6	6.53749
15.61	6.53025
15.62	6.51085
15.63	6.5115
15.64	6.53256
15.65	6.53486
15.66	6.56118
15.67	6.57203
15.68	6.54637
15.69	6.50196
15.7	6.51117
15.71	6.52269
15.72	6.51578
15.73	6.51578
15.74	6.50624
15.75	6.48486
15.76	6.4967
15.77	6.55032
15.78	6.56545
15.79	6.52335
15.8	6.50788
15.81	6.49473
15.82	6.53749
15.83	6.50756
15.84	6.48091
15.85	6.49341
15.86	6.5217
15.87	6.49966
15.88	6.48486
15.89	6.47137
15.9	6.49407
15.91	6.49802
15.92	6.53124
15.93	6.45887
15.94	6.48453
15.95	6.48848
15.96	6.51545
15.97	6.52828
15.98	6.45196
15.99	6.52006
16	6.50295
16.01	6.51874
16.02	6.52565
16.03	6.54045
16.04	6.48716
16.05	6.52828
16.06	6.5444
16.07	6.50163
16.08	6.52466
16.09	6.43288
16.1	6.49374
16.11	6.51677
16.12	6.52729
16.13	6.49867
16.14	6.49078
16.15	6.48881
16.16	6.4944
16.17	6.45032
16.18	6.47762
16.19	6.54407
16.2	6.52466
16.21	6.51183
16.22	6.51117
16.23	6.54506
16.24	6.47795
16.25	6.47269
16.26	6.51381
16.27	6.49144
16.28	6.52006
16.29	6.54177
16.3	6.51578
16.31	6.51479
16.32	6.48683
16.33	6.5319
16.34	6.55065
16.35	6.51479
16.36	6.50591
16.37	6.53025
16.38	6.53585
16.39	6.474
16.4	6.47828
16.41	6.45426
16.42	6.48716
16.43	6.50229
16.44	6.45854
16.45	6.47334
16.46	6.5342
16.47	6.47334
16.48	6.53979
16.49	6.51973
16.5	6.50065
16.51	6.50492
16.52	6.52762
16.53	6.49834
16.54	6.47236
16.55	6.51315
16.56	6.53223
16.57	6.5217
16.58	6.499
16.59	6.45755
16.6	6.46446
16.61	6.47104
16.62	6.5296
16.63	6.51381
16.64	6.48946
16.65	6.47598
16.66	6.48223
16.67	6.5194
16.68	6.51973
16.69	6.49242
16.7	6.47433
16.71	6.49933
16.72	6.52664
16.73	6.47038
16.74	6.47367
16.75	6.4638
16.76	6.47729
16.77	6.51611
16.78	6.47236
16.79	6.47598
16.8	6.45953
16.81	6.52006
16.82	6.51315
16.83	6.4615
16.84	6.48749
16.85	6.46775
16.86	6.47762
16.87	6.46282
16.88	6.44867
16.89	6.424
16.9	6.41347
16.91	6.47795
16.92	6.50361
16.93	6.43124
16.94	6.50295
16.95	6.49834
16.96	6.47071
16.97	6.48288
16.98	6.59506
16.99	6.52631
17	6.49867
17.01	6.55196
17.02	6.53914
17.03	6.52532
17.04	6.48552
17.05	6.45032
17.06	6.46084
17.07	6.4819
17.08	6.52269
17.09	6.45098
17.1	6.50131
17.11	6.53914
17.12	6.47959
17.13	6.49111
17.14	6.50624
17.15	6.49506
17.16	6.49834
17.17	6.45394
17.18	6.48453
17.19	6.47795
17.2	6.44999
17.21	6.47367
17.22	6.4467
17.23	6.49275
17.24	6.49769
17.25	6.48058
17.26	6.50723
17.27	6.54506
17.28	6.52894
17.29	6.49078
17.3	6.48782
17.31	6.45821
17.32	6.44473
17.33	6.48453
17.34	6.49374
17.35	6.46446
17.36	6.46545
17.37	6.47499
17.38	6.49999
17.39	6.49308
17.4	6.52236
17.41	6.52795
17.42	6.49571
17.43	6.51052
17.44	6.46644
17.45	6.47071
17.46	6.46874
17.47	6.47762
17.48	6.52006
17.49	6.4513
17.5	6.46051
17.51	6.49242
17.52	6.49374
17.53	6.50821
17.54	6.49275
17.55	6.449
17.56	6.49538
17.57	6.48683
17.58	6.51808
17.59	6.52236
17.6	6.49933
17.61	6.46446
17.62	6.47565
17.63	6.49571
17.64	6.47005
17.65	6.43782
17.66	6.51545
17.67	6.48584
17.68	6.47861
17.69	6.4467
17.7	6.55131
17.71	6.51578
17.72	6.4569
17.73	6.47532
17.74	6.44144
17.75	6.44275
17.76	6.45426
17.77	6.48782
17.78	6.47598
17.79	6.46479
17.8	6.49703
17.81	6.48519
17.82	6.48288
17.83	6.44045
17.84	6.48453
17.85	6.46677
17.86	6.47598
17.87	6.43847
17.88	6.45821
17.89	6.42959
17.9	6.42104
17.91	6.45558
17.92	6.46907
17.93	6.45394
17.94	6.45624
17.95	6.47696
17.96	6.47565
17.97	6.42301
17.98	6.43222
17.99	6.47959
18	6.47565
18.01	6.48519
18.02	6.44374
18.03	6.4513
18.04	6.48288
18.05	6.49308
18.06	6.47828
18.07	6.44933
18.08	6.53749
18.09	6.46677
18.1	6.43354
18.11	6.42137
18.12	6.42894
18.13	6.42762
18.14	6.43157
18.15	6.45525
18.16	6.44966
18.17	6.44111
18.18	6.45394
18.19	6.47071
18.2	6.45525
18.21	6.45492
18.22	6.44374
18.23	6.46216
18.24	6.42663
18.25	6.38847
18.26	6.4569
18.27	6.41808
18.28	6.41874
18.29	6.48453
18.3	6.47038
18.31	6.48519
18.32	6.47894
18.33	6.43486
18.34	6.46413
18.35	6.51644
18.36	6.43815
18.37	6.42433
18.38	6.46545
18.39	6.45953
18.4	6.46249
18.41	6.45426
18.42	6.47367
18.43	6.41446
18.44	6.43288
18.45	6.48223
18.46	6.45065
18.47	6.46545
18.48	6.49045
18.49	6.53354
18.5	6.5194
18.51	6.47499
18.52	6.44703
18.53	6.42466
18.54	6.45328
18.55	6.40229
18.56	6.47663
18.57	6.47663
18.58	6.49506
18.59	6.47302
18.6	6.47334
18.61	6.45854
18.62	6.46611
18.63	6.44505
18.64	6.42071
18.65	6.45657
18.66	6.4763
18.67	6.42992
18.68	6.39768
18.69	6.43584
18.7	6.45723
18.71	6.48354
18.72	6.48683
18.73	6.43815
18.74	6.39209
18.75	6.43847
18.76	6.52466
18.77	6.46413
18.78	6.46808
18.79	6.4513
18.8	6.41018
18.81	6.45262
18.82	6.47696
18.83	6.48256
18.84	6.41084
18.85	6.41874
18.86	6.42663
18.87	6.43847
18.88	6.46413
18.89	6.41874
18.9	6.43946
18.91	6.47959
18.92	6.46183
18.93	6.44078
18.94	6.4763
18.95	6.424
18.96	6.44966
18.97	6.44242
18.98	6.48913
18.99	6.46841
19	6.45821
19.01	6.43716
19.02	6.45657
19.03	6.45821
19.04	6.4513
19.05	6.45328
19.06	6.41018
19.07	6.49012
19.08	6.45196
19.09	6.42104
19.1	6.38485
19.11	6.3865
19.12	6.4138
19.13	6.50657
19.14	6.49571
19.15	6.45459
19.16	6.37959
19.17	6.44242
19.18	6.43321
19.19	6.44999
19.2	6.43716
19.21	6.42137
19.22	6.4013
19.23	6.3865
19.24	6.39538
19.25	6.41347
19.26	6.39045
19.27	6.4194
19.28	6.44078
19.29	6.44834
19.3	6.42597
19.31	6.45065
19.32	6.39801
19.33	6.43124
19.34	6.44736
19.35	6.45986
19.36	6.46315
19.37	6.44012
19.38	6.44736
19.39	6.43124
19.4	6.48519
19.41	6.46084
19.42	6.45953
19.43	6.46973
19.44	6.46709
19.45	6.44637
19.46	6.43584
19.47	6.39505
19.48	6.3467
19.49	6.46019
19.5	6.44637
19.51	6.50065
19.52	6.42762
19.53	6.43321
19.54	6.4819
19.55	6.4365
19.56	6.44637
19.57	6.42696
19.58	6.37828
19.59	6.44538
19.6	6.43453
19.61	6.4467
19.62	6.46512
19.63	6.4513
19.64	6.42992
19.65	6.45196
19.66	6.43124
19.67	6.47367
19.68	6.44637
19.69	6.42433
19.7	6.4763
19.71	6.47203
19.72	6.42433
19.73	6.38683
19.74	6.43913
19.75	6.41578
19.76	6.44045
19.77	6.38814
19.78	6.44933
19.79	6.43683
19.8	6.43387
19.81	6.4638
19.82	6.48321
19.83	6.42334
19.84	6.39209
19.85	6.44078
19.86	6.42992
19.87	6.44571
19.88	6.42663
19.89	6.47828
19.9	6.39933
19.91	6.42334
19.92	6.42236
19.93	6.41479
19.94	6.39275
19.95	6.42334
19.96	6.47927
19.97	6.44242
19.98	6.4819
19.99	6.47795
20	6.44407
20.01	6.45755
20.02	6.40196
20.03	6.38255
20.04	6.43683
20.05	6.47696
20.06	6.40755
20.07	6.45032
20.08	6.45723
20.09	6.42729
20.1	6.36446
20.11	6.37137
20.12	6.38847
20.13	6.39801
20.14	6.39472
20.15	6.40986
20.16	6.47959
20.17	6.44407
20.18	6.40821
20.19	6.48157
20.2	6.45986
20.21	6.43551
20.22	6.43288
20.23	6.41643
20.24	6.44341
20.25	6.4592
20.26	6.41972
20.27	6.41347
20.28	6.39176
20.29	6.37499
20.3	6.42499
20.31	6.42499
20.32	6.41841
20.33	6.46644
20.34	6.44209
20.35	6.45163
20.36	6.40295
20.37	6.41742
20.38	6.43091
20.39	6.41808
20.4	6.46545
20.41	6.41183
20.42	6.42959
20.43	6.43749
20.44	6.46578
20.45	6.44308
20.46	6.42367
20.47	6.43847
20.48	6.44078
20.49	6.39999
20.5	6.47927
20.51	6.45624
20.52	6.42499
20.53	6.43946
20.54	6.46249
20.55	6.44176
20.56	6.43551
20.57	6.42301
20.58	6.4365
20.59	6.44966
20.6	6.42762
20.61	6.44505
20.62	6.4138
20.63	6.35558
20.64	6.41907
20.65	6.41512
20.66	6.39308
20.67	6.4638
20.68	6.44341
20.69	6.43749
20.7	6.45032
20.71	6.44736
20.72	6.45328
20.73	6.4092
20.74	6.43683
20.75	6.41282
20.76	6.42795
20.77	6.37334
20.78	6.39604
20.79	6.42894
20.8	6.36972
20.81	6.3888
20.82	6.41775
20.83	6.449
20.84	6.43157
20.85	6.41446
20.86	6.39768
20.87	6.43683
20.88	6.42959
20.89	6.42433
20.9	6.41117
20.91	6.42926
20.92	6.44111
20.93	6.42499
20.94	6.39439
20.95	6.42433
20.96	6.38124
20.97	6.42565
20.98	6.42828
20.99	6.38354
21	6.41512
21.01	6.42597
21.02	6.46282
21.03	6.42236
21.04	6.39472
21.05	6.41907
21.06	6.39341
21.07	6.4263
21.08	6.42565
21.09	6.42696
21.1	6.39999
21.11	6.41775
21.12	6.43157
21.13	6.41907
21.14	6.42959
21.15	6.41347
21.16	6.37729
21.17	6.36874
21.18	6.39736
21.19	6.4513
21.2	6.42466
21.21	6.36249
21.22	6.35985
21.23	6.39242
21.24	6.39966
21.25	6.37235
21.26	6.38189
21.27	6.38913
21.28	6.449
21.29	6.41249
21.3	6.38157
21.31	6.38551
21.32	6.41413
21.33	6.41183
21.34	6.3638
21.35	6.39703
21.36	6.38551
21.37	6.47795
21.38	6.47203
21.39	6.40459
21.4	6.41709
21.41	6.374
21.42	6.35064
21.43	6.39242
21.44	6.43584
21.45	6.42696
21.46	6.41446
21.47	6.46644
21.48	6.40953
21.49	6.45723
21.5	6.41512
21.51	6.37499
21.52	6.41512
21.53	6.36216
21.54	6.38518
21.55	6.41972
21.56	6.399
21.57	6.40624
21.58	6.36183
21.59	6.36413
21.6	6.44505
21.61	6.44242
21.62	6.37137
21.63	6.37499
21.64	6.34735
21.65	6.37499
21.66	6.39768
21.67	6.40163
21.68	6.40755
21.69	6.37268
21.7	6.34176
21.71	6.39407
21.72	6.42894
21.73	6.40953
21.74	6.39407
21.75	6.41183
21.76	6.37729
21.77	6.39439
21.78	6.43749
21.79	6.45394
21.8	6.3661
21.81	6.39439
21.82	6.41084
21.83	6.41413
21.84	6.38157
21.85	6.40788
21.86	6.38453
21.87	6.36972
21.88	6.41216
21.89	6.35097
21.9	6.42828
21.91	6.46348
21.92	6.42532
21.93	6.42268
21.94	6.42038
21.95	6.40591
21.96	6.41249
21.97	6.38979
21.98	6.41446
21.99	6.41249
22	6.39538
22.01	6.43091
22.02	6.43486
22.03	6.42861
22.04	6.39275
22.05	6.43683
22.06	6.42499
22.07	6.38847
22.08	6.36512
22.09	6.37466
22.1	6.40953
22.11	6.40393
22.12	6.39012
22.13	6.38749
22.14	6.39867
22.15	6.43321
22.16	6.40624
22.17	6.36907
22.18	6.38946
22.19	6.41249
22.2	6.41676
22.21	6.37663
22.22	6.40624
22.23	6.38683
22.24	6.43584
22.25	6.41611
22.26	6.43321
22.27	6.40755
22.28	6.40558
22.29	6.43157
22.3	6.37433
22.31	6.37367
22.32	6.38124
22.33	6.39867
22.34	6.40492
22.35	6.40492
22.36	6.37433
22.37	6.36314
22.38	6.34933
22.39	6.38979
22.4	6.39407
22.41	6.38847
22.42	6.35656
22.43	6.3638
22.44	6.38387
22.45	6.35328
22.46	6.40953
22.47	6.43683
22.48	6.42137
22.49	6.39439
22.5	6.38157
22.51	6.40854
22.52	6.40986
22.53	6.37762
22.54	6.41907
22.55	6.38485
22.56	6.38551
22.57	6.37696
22.58	6.35262
22.59	6.36249
22.6	6.41775
22.61	6.37334
22.62	6.39768
22.63	6.43519
22.64	6.43584
22.65	6.38025
22.66	6.39768
22.67	6.38847
22.68	6.39439
22.69	6.41578
22.7	6.35887
22.71	6.34768
22.72	6.39341
22.73	6.41841
22.74	6.36347
22.75	6.36907
22.76	6.41841
22.77	6.45821
22.78	6.43519
22.79	6.39341
22.8	6.38387
22.81	6.38617
22.82	6.41282
22.83	6.42104
22.84	6.37499
22.85	6.36841
22.86	6.34538
22.87	6.38946
22.88	6.40887
22.89	6.4138
22.9	6.39143
22.91	6.36578
22.92	6.41084
22.93	6.39505
22.94	6.38617
22.95	6.41084
22.96	6.41315
22.97	6.35755
22.98	6.38124
22.99	6.40426
23	6.43157
23.01	6.45361
23.02	6.43124
23.03	6.39439
23.04	6.41315
23.05	6.39275
23.06	6.39768
23.07	6.40163
23.08	6.35788
23.09	6.37268
23.1	6.4069
23.11	6.37301
23.12	6.36183
23.13	6.39604
23.14	6.36808
23.15	6.38683
23.16	6.40755
23.17	6.4092
23.18	6.38814
23.19	6.37532
23.2	6.41117
23.21	6.40986
23.22	6.36512
23.23	6.39933
23.24	6.40426
23.25	6.39111
23.26	6.39143
23.27	6.34768
23.28	6.38946
23.29	6.4013
23.3	6.36512
23.31	6.36281
23.32	6.37235
23.33	6.39176
23.34	6.39933
23.35	6.44801
23.36	6.38485
23.37	6.36709
23.38	6.449
23.39	6.39637
23.4	6.39637
23.41	6.38617
23.42	6.36742
23.43	6.37597
23.44	6.399
23.45	6.39407
23.46	6.36578
23.47	6.40426
23.48	6.41907
23.49	6.38749
23.5	6.38058
23.51	6.40196
23.52	6.39078
23.53	6.36775
23.54	6.34702
23.55	6.34933
23.56	6.34308
23.57	6.33025
23.58	6.38979
23.59	6.35887
23.6	6.34604
23.61	6.39374
23.62	6.37367
23.63	6.36972
23.64	6.45821
23.65	6.41545
23.66	6.40788
23.67	6.42565
23.68	6.4138
23.69	6.39736
23.7	6.39472
23.71	6.36742
23.72	6.35591
23.73	6.40295
23.74	6.41841
23.75	6.41347
23.76	6.40854
23.77	6.40361
23.78	6.41874
23.79	6.42926
23.8	6.40229
23.81	6.38091
23.82	6.3615
23.83	6.36841
23.84	6.35953
23.85	6.3865
23.86	6.41018
23.87	6.36413
23.88	6.37926
23.89	6.41611
23.9	6.37663
23.91	6.38847
23.92	6.37038
23.93	6.34867
23.94	6.33617
23.95	6.39078
23.96	6.37071
23.97	6.35229
23.98	6.35558
23.99	6.36413
24	6.32334
24.01	6.34933
24.02	6.33189
24.03	6.37597
24.04	6.39111
24.05	6.42005
24.06	6.4013
24.07	6.42137
24.08	6.39308
24.09	6.41972
24.1	6.39538
24.11	6.3888
24.12	6.38387
24.13	6.43387
24.14	6.37795
24.15	6.34933
24.16	6.34768
24.17	6.38255
24.18	6.38584
24.19	6.37038
24.2	6.41282
24.21	6.38584
24.22	6.37268
24.23	6.32893
24.24	6.36051
24.25	6.39275
24.26	6.42137
24.27	6.36841
24.28	6.39736
24.29	6.38157
24.3	6.42236
24.31	6.37268
24.32	6.40426
24.33	6.39801
24.34	6.40525
24.35	6.38683
24.36	6.39571
24.37	6.38716
24.38	6.40492
24.39	6.34702
24.4	6.41907
24.41	6.38782
24.42	6.34209
24.43	6.37203
24.44	6.35031
24.45	6.40788
24.46	6.38222
24.47	6.43683
24.48	6.42367
24.49	6.46709
24.5	6.43782
24.51	6.38716
24.52	6.44834
24.53	6.41051
24.54	6.4444
24.55	6.40525
24.56	6.35591
24.57	6.42334
24.58	6.38288
24.59	6.40821
24.6	6.36512
24.61	6.36874
24.62	6.3286
24.63	6.35953
24.64	6.40558
24.65	6.36183
24.66	6.39111
24.67	6.40986
24.68	6.33617
24.69	6.38091
24.7	6.34867
24.71	6.34143
24.72	6.34735
24.73	6.36314
24.74	6.43288
24.75	6.42433
24.76	6.36939
24.77	6.37301
24.78	6.374
24.79	6.3661
24.8	6.39834
24.81	6.41347
24.82	6.37795
24.83	6.40525
24.84	6.40459
24.85	6.39834
24.86	6.41775
24.87	6.36249
24.88	6.37532
24.89	6.43255
24.9	6.37729
24.91	6.36512
24.92	6.3638
24.93	6.33946
24.94	6.34933
24.95	6.34308
24.96	6.38617
24.97	6.36413
24.98	6.38321
24.99	6.36874
25	6.34702
25.01	6.37005
25.02	6.39078
25.03	6.33025
25.04	6.38025
25.05	6.39703
25.06	6.37729
25.07	6.38946
25.08	6.36479
25.09	6.36446
25.1	6.38716
25.11	6.36216
25.12	6.32235
25.13	6.36249
25.14	6.42992
25.15	6.39341
25.16	6.39143
25.17	6.3717
25.18	6.374
25.19	6.399
25.2	6.38321
25.21	6.36018
25.22	6.40788
25.23	6.39374
25.24	6.37959
25.25	6.39604
25.26	6.35393
25.27	6.37203
25.28	6.40328
25.29	6.37137
25.3	6.35722
25.31	6.34735
25.32	6.40328
25.33	6.3967
25.34	6.36051
25.35	6.33814
25.36	6.43782
25.37	6.38354
25.38	6.38979
25.39	6.38584
25.4	6.40854
25.41	6.39505
25.42	6.399
25.43	6.41249
25.44	6.38354
25.45	6.39505
25.46	6.43255
25.47	6.37828
25.48	6.37696
25.49	6.37893
25.5	6.4013
25.51	6.33946
25.52	6.34768
25.53	6.40722
25.54	6.39209
25.55	6.38157
25.56	6.40953
25.57	6.37137
25.58	6.39834
25.59	6.37038
25.6	6.36347
25.61	6.38485
25.62	6.35887
25.63	6.34077
25.64	6.31873
25.65	6.3365
25.66	6.34801
25.67	6.34308
25.68	6.39505
25.69	6.38782
25.7	6.35295
25.71	6.34801
25.72	6.37466
25.73	6.41315
25.74	6.35031
25.75	6.34308
25.76	6.38485
25.77	6.38453
25.78	6.34176
25.79	6.40722
25.8	6.37433
25.81	6.38124
25.82	6.39801
25.83	6.41216
25.84	6.34308
25.85	6.35393
25.86	6.36939
25.87	6.35525
25.88	6.35591
25.89	6.34571
25.9	6.36051
25.91	6.34275
25.92	6.34966
25.93	6.40953
25.94	6.40525
25.95	6.37893
25.96	6.35525
25.97	6.38124
25.98	6.36972
25.99	6.34505
26	6.41512
26.01	6.41413
26.02	6.3888
26.03	6.37959
26.04	6.374
26.05	6.37466
26.06	6.38946
26.07	6.41117
26.08	6.39801
26.09	6.33321
26.1	6.32104
26.11	6.3786
26.12	6.38683
26.13	6.36709
26.14	6.37597
26.15	6.34143
26.16	6.34735
26.17	6.40361
26.18	6.4013
26.19	6.38288
26.2	6.35953
26.21	6.34472
26.22	6.39143
26.23	6.36841
26.24	6.35624
26.25	6.39933
26.26	6.38288
26.27	6.39867
26.28	6.44176
26.29	6.38551
26.3	6.39242
26.31	6.37038
26.32	6.40328
26.33	6.45361
26.34	6.39078
26.35	6.35755
26.36	6.31643
26.37	6.37235
26.38	6.3865
26.39	6.37466
26.4	6.37466
26.41	6.36281
26.42	6.36709
26.43	6.35722
26.44	6.34966
26.45	6.36051
26.46	6.37301
26.47	6.37071
26.48	6.39045
26.49	6.4092
26.5	6.40361
26.51	6.34538
26.52	6.38222
26.53	6.36479
26.54	6.3592
26.55	6.32071
26.56	6.40525
26.57	6.38453
26.58	6.3365
26.59	6.36314
26.6	6.36018
26.61	6.35229
26.62	6.37005
26.63	6.37334
26.64	6.36775
26.65	6.38518
26.66	6.37005
26.67	6.37597
26.68	6.30558
26.69	6.34275
26.7	6.30887
26.71	6.31051
26.72	6.36742
26.73	6.28683
26.74	6.31281
26.75	6.38946
26.76	6.39341
26.77	6.36709
26.78	6.37959
26.79	6.35788
26.8	6.32762
26.81	6.35031
26.82	6.35887
26.83	6.33452
26.84	6.38716
26.85	6.33222
26.86	6.37564
26.87	6.39374
26.88	6.374
26.89	6.40393
26.9	6.37268
26.91	6.39308
26.92	6.36216
26.93	6.31577
26.94	6.33222
26.95	6.36216
26.96	6.36183
26.97	6.37564
26.98	6.33518
26.99	6.34834
27	6.40064
27.01	6.37532
27.02	6.3786
27.03	6.30163
27.04	6.34505
27.05	6.34768
27.06	6.39242
27.07	6.37696
27.08	6.40328
27.09	6.3536
27.1	6.3388
27.11	6.4092
27.12	6.36907
27.13	6.40295
27.14	6.35328
27.15	6.31742
27.16	6.41249
27.17	6.36578
27.18	6.33716
27.19	6.35196
27.2	6.37005
27.21	6.38288
27.22	6.34242
27.23	6.35525
27.24	6.3592
27.25	6.36775
27.26	6.34768
27.27	6.40821
27.28	6.36216
27.29	6.36084
27.3	6.40426
27.31	6.40196
27.32	6.32498
27.33	6.36446
27.34	6.38617
27.35	6.36709
27.36	6.31018
27.37	6.35887
27.38	6.36578
27.39	6.38091
27.4	6.35492
27.41	6.33847
27.42	6.42597
27.43	6.40492
27.44	6.41249
27.45	6.39703
27.46	6.34275
27.47	6.36709
27.48	6.3217
27.49	6.35492
27.5	6.38321
27.51	6.34867
27.52	6.3888
27.53	6.40393
27.54	6.42926
27.55	6.40492
27.56	6.41742
27.57	6.46479
27.58	6.37071
27.59	6.39078
27.6	6.36117
27.61	6.35163
27.62	6.33452
27.63	6.31808
27.64	6.32202
27.65	6.35722
27.66	6.40097
27.67	6.38913
27.68	6.32926
27.69	6.38847
27.7	6.374
27.71	6.36183
27.72	6.36281
27.73	6.34933
27.74	6.38979
27.75	6.38255
27.76	6.36413
27.77	6.34242
27.78	6.33814
27.79	6.33683
27.8	6.33584
27.81	6.40426
27.82	6.37466
27.83	6.36808
27.84	6.42367
27.85	6.37532
27.86	6.35689
27.87	6.33058
27.88	6.32071
27.89	6.39242
27.9	6.40558
27.91	6.39242
27.92	6.38288
27.93	6.34999
27.94	6.39801
27.95	6.39768
27.96	6.36117
27.97	6.35656
27.98	6.40821
27.99	6.35031
28	6.37433
28.01	6.36446
28.02	6.33452
28.03	6.32959
28.04	6.36907
28.05	6.37762
28.06	6.37893
28.07	6.33124
28.08	6.32597
28.09	6.33091
28.1	6.33979
28.11	6.36643
28.12	6.38584
28.13	6.39768
28.14	6.38288
28.15	6.35656
28.16	6.38255
28.17	6.35492
28.18	6.28814
28.19	6.35821
28.2	6.33321
28.21	6.38222
28.22	6.37367
28.23	6.34176
28.24	6.35689
28.25	6.37926
28.26	6.34834
28.27	6.36051
28.28	6.36939
28.29	6.36347
28.3	6.34439
28.31	6.33683
28.32	6.33091
28.33	6.3513
28.34	6.34505
28.35	6.35985
28.36	6.36874
28.37	6.35624
28.38	6.34439
28.39	6.30887
28.4	6.32301
28.41	6.34374
28.42	6.36281
28.43	6.34702
28.44	6.34834
28.45	6.34801
28.46	6.34143
28.47	6.37499
28.48	6.37071
28.49	6.33847
28.5	6.33584
28.51	6.33847
28.52	6.3217
28.53	6.3365
28.54	6.41578
28.55	6.34012
28.56	6.37828
28.57	6.3786
28.58	6.41084
28.59	6.4013
28.6	6.33847
28.61	6.36709
28.62	6.35525
28.63	6.35722
28.64	6.35887
28.65	6.32696
28.66	6.33716
28.67	6.40032
28.68	6.40361
28.69	6.39209
28.7	6.35854
28.71	6.40624
28.72	6.36545
28.73	6.34505
28.74	6.33156
28.75	6.37893
28.76	6.33847
28.77	6.3638
28.78	6.37893
28.79	6.38847
28.8	6.33749
28.81	6.3467
28.82	6.34308
28.83	6.32597
28.84	6.37532
28.85	6.36808
28.86	6.3717
28.87	6.34867
28.88	6.35722
28.89	6.37729
28.9	6.34571
28.91	6.32498
28.92	6.32466
28.93	6.35854
28.94	6.349
28.95	6.32564
28.96	6.38354
28.97	6.35262
28.98	6.38518
28.99	6.3138
29	6.35064
29.01	6.35262
29.02	6.33584
29.03	6.35985
29.04	6.34176
29.05	6.36446
29.06	6.37762
29.07	6.33387
29.08	6.33156
29.09	6.32498
29.1	6.33485
29.11	6.31808
29.12	6.38058
29.13	6.36907
29.14	6.37433
29.15	6.38091
29.16	6.35031
29.17	6.31512
29.18	6.33551
29.19	6.36446
29.2	6.34406
29.21	6.31939
29.22	6.31577
29.23	6.33551
29.24	6.3161
29.25	6.31413
29.26	6.3467
29.27	6.3888
29.28	6.40788
29.29	6.39045
29.3	6.35887
29.31	6.35097
29.32	6.35031
29.33	6.39111
29.34	6.34341
29.35	6.32959
29.36	6.34439
29.37	6.34867
29.38	6.39801
29.39	6.35558
29.4	6.33058
29.41	6.38157
29.42	6.33913
29.43	6.39209
29.44	6.34999
29.45	6.35788
29.46	6.34472
29.47	6.3161
29.48	6.35196
29.49	6.38814
29.5	6.34406
29.51	6.35788
29.52	6.33847
29.53	6.37301
29.54	6.40097
29.55	6.34834
29.56	6.37828
29.57	6.36018
29.58	6.3536
29.59	6.35328
29.6	6.33913
29.61	6.34242
29.62	6.37104
29.63	6.33716
29.64	6.34834
29.65	6.35854
29.66	6.324
29.67	6.37005
29.68	6.38288
29.69	6.3592
29.7	6.38551
29.71	6.37499
29.72	6.36051
29.73	6.35854
29.74	6.3467
29.75	6.31775
29.76	6.35558
29.77	6.36084
29.78	6.36972
29.79	6.36018
29.8	6.35295
29.81	6.31216
29.82	6.33979
29.83	6.3661
29.84	6.3763
29.85	6.30722
29.86	6.3365
29.87	6.33321
29.88	6.299
29.89	6.33058
29.9	6.30788
29.91	6.34242
29.92	6.35196
29.93	6.31808
29.94	6.37367
29.95	6.33485
29.96	6.35492
29.97	6.34012
29.98	6.32202
29.99	6.35591
30	6.35624
30.01	6.34637
30.02	6.36446
30.03	6.33025
30.04	6.32466
30.05	6.33946
30.06	6.32827
30.07	6.37433
30.08	6.37466
30.09	6.34012
30.1	6.3342
30.11	6.33124
30.12	6.31808
30.13	6.33025
30.14	6.34702
30.15	6.3592
30.16	6.3638
30.17	6.3888
30.18	6.30919
30.19	6.33584
30.2	6.37532
30.21	6.3592
30.22	6.37992
30.23	6.34012
30.24	6.3365
30.25	6.32597
30.26	6.33683
30.27	6.34999
30.28	6.37729
30.29	6.37071
30.3	6.34143
30.31	6.37071
30.32	6.3467
30.33	6.3365
30.34	6.37235
30.35	6.37795
30.36	6.34702
30.37	6.32597
30.38	6.34801
30.39	6.36545
30.4	6.31808
30.41	6.33156
30.42	6.36413
30.43	6.33979
30.44	6.36808
30.45	6.37466
30.46	6.34538
30.47	6.33946
30.48	6.36446
30.49	6.35492
30.5	6.35492
30.51	6.35328
30.52	6.34242
30.53	6.34012
30.54	6.32597
30.55	6.3467
30.56	6.3217
30.57	6.34571
30.58	6.39571
30.59	6.35295
30.6	6.3888
30.61	6.38387
30.62	6.34966
30.63	6.35492
30.64	6.31939
30.65	6.31545
30.66	6.35492
30.67	6.38946
30.68	6.34538
30.69	6.32762
30.7	6.34505
30.71	6.33124
30.72	6.35656
30.73	6.35953
30.74	6.35788
30.75	6.35558
30.76	6.33551
30.77	6.36939
30.78	6.41808
30.79	6.40361
30.8	6.31281
30.81	6.30064
30.82	6.38255
30.83	6.39472
30.84	6.37005
30.85	6.349
30.86	6.33189
30.87	6.3786
30.88	6.29538
30.89	6.31183
30.9	6.35393
30.91	6.33321
30.92	6.34637
30.93	6.35689
30.94	6.33551
30.95	6.33354
30.96	6.31873
30.97	6.34999
30.98	6.35722
30.99	6.34439
31	6.31808
31.01	6.34472
31.02	6.33979
31.03	6.36281
31.04	6.32827
31.05	6.30952
31.06	6.32137
31.07	6.34275
31.08	6.32038
31.09	6.39736
31.1	6.36051
31.11	6.34768
31.12	6.34735
31.13	6.29373
31.14	6.34308
31.15	6.34604
31.16	6.26808
31.17	6.31775
31.18	6.34045
31.19	6.34242
31.2	6.3411
31.21	6.29637
31.22	6.32729
31.23	6.34176
31.24	6.36972
31.25	6.3467
31.26	6.36676
31.27	6.34571
31.28	6.33222
31.29	6.34768
31.3	6.34308
31.31	6.32071
31.32	6.32597
31.33	6.3036
31.34	6.33716
31.35	6.34275
31.36	6.32663
31.37	6.30558
31.38	6.31643
31.39	6.32795
31.4	6.33551
31.41	6.31413
31.42	6.36676
31.43	6.37433
31.44	6.35295
31.45	6.3411
31.46	6.3263
31.47	6.30788
31.48	6.36117
31.49	6.33354
31.5	6.32071
31.51	6.3661
31.52	6.35426
31.53	6.37268
31.54	6.36413
31.55	6.36643
31.56	6.35393
31.57	6.36281
31.58	6.35821
31.59	6.32762
31.6	6.34801
31.61	6.35854
31.62	6.36347
31.63	6.3365
31.64	6.31577
31.65	6.36216
31.66	6.38946
31.67	6.31216
31.68	6.30788
31.69	6.33124
31.7	6.34768
31.71	6.34702
31.72	6.30854
31.73	6.31479
31.74	6.32696
31.75	6.32597
31.76	6.39341
31.77	6.42597
31.78	6.37367
31.79	6.32762
31.8	6.34999
31.81	6.3615
31.82	6.35985
31.83	6.34867
31.84	6.32564
31.85	6.35295
31.86	6.35985
31.87	6.32729
31.88	6.33025
31.89	6.36808
31.9	6.34735
31.91	6.31018
31.92	6.35953
31.93	6.38518
31.94	6.34143
31.95	6.32827
31.96	6.34341
31.97	6.33255
31.98	6.3513
31.99	6.37038
32	6.31281
32.01	6.35031
32.02	6.35525
32.03	6.36347
32.04	6.3013
32.05	6.32005
32.06	6.32696
32.07	6.34472
32.08	6.31841
32.09	6.32433
32.1	6.3365
32.11	6.32795
32.12	6.34702
32.13	6.35591
32.14	6.34439
32.15	6.28847
32.16	6.28814
32.17	6.32235
32.18	6.35985
32.19	6.31117
32.2	6.31643
32.21	6.36084
32.22	6.36018
32.23	6.30262
32.24	6.29834
32.25	6.3263
32.26	6.35722
32.27	6.34209
32.28	6.35558
32.29	6.32531
32.3	6.30854
32.31	6.33321
32.32	6.27268
32.33	6.38485
32.34	6.38946
32.35	6.34439
32.36	6.36512
32.37	6.30985
32.38	6.32827
32.39	6.28321
32.4	6.36117
32.41	6.33255
32.42	6.34045
32.43	6.31775
32.44	6.34045
32.45	6.32005
32.46	6.3467
32.47	6.33255
32.48	6.34999
32.49	6.3513
32.5	6.32992
32.51	6.36512
32.52	6.30163
32.53	6.34834
32.54	6.31413
32.55	6.35064
32.56	6.33058
32.57	6.35328
32.58	6.34933
32.59	6.3365
32.6	6.30064
32.61	6.33946
32.62	6.3467
32.63	6.37466
32.64	6.40032
32.65	6.36775
32.66	6.30525
32.67	6.34406
32.68	6.35328
32.69	6.34143
32.7	6.35821
32.71	6.34966
32.72	6.37203
32.73	6.32597
32.74	6.37532
32.75	6.37203
32.76	6.33321
32.77	6.30854
32.78	6.324
32.79	6.35196
32.8	6.40262
32.81	6.3217
32.82	6.35459
32.83	6.33847
32.84	6.34999
32.85	6.34308
32.86	6.3411
32.87	6.33781
32.88	6.37729
32.89	6.37038
32.9	6.29637
32.91	6.30064
32.92	6.31216
32.93	6.31742
32.94	6.36841
32.95	6.36084
32.96	6.32071
32.97	6.29768
32.98	6.34867
32.99	6.35426
33	6.35097
33.01	6.324
33.02	6.32893
33.03	6.36446
33.04	6.33814
33.05	6.36281
33.06	6.37268
33.07	6.39143
33.08	6.36216
33.09	6.3115
33.1	6.34209
33.11	6.32367
33.12	6.35591
33.13	6.35755
33.14	6.38716
33.15	6.34209
33.16	6.34143
33.17	6.29242
33.18	6.29998
33.19	6.32531
33.2	6.30196
33.21	6.3342
33.22	6.34867
33.23	6.30887
33.24	6.2809
33.25	6.34472
33.26	6.36578
33.27	6.34505
33.28	6.36676
33.29	6.3013
33.3	6.31512
33.31	6.30064
33.32	6.30459
33.33	6.29735
33.34	6.30163
33.35	6.33058
33.36	6.33485
33.37	6.28683
33.38	6.33617
33.39	6.34242
33.4	6.31577
33.41	6.3342
33.42	6.33354
33.43	6.35624
33.44	6.3342
33.45	6.33847
33.46	6.32367
33.47	6.32268
33.48	6.3661
33.49	6.32827
33.5	6.32202
33.51	6.37466
33.52	6.34768
33.53	6.31446
33.54	6.34637
33.55	6.30887
33.56	6.3888
33.57	6.35064
33.58	6.34571
33.59	6.34834
33.6	6.31972
33.61	6.32433
33.62	6.29867
33.63	6.31841
33.64	6.37499
33.65	6.33913
33.66	6.33913
33.67	6.37466
33.68	6.35097
33.69	6.32466
33.7	6.29998
33.71	6.34505
33.72	6.35262
33.73	6.34275
33.74	6.32696
33.75	6.29242
33.76	6.26939
33.77	6.28156
33.78	6.24604
33.79	6.27696
33.8	6.29933
33.81	6.3411
33.82	6.32827
33.83	6.27762
33.84	6.3138
33.85	6.31841
33.86	6.33288
33.87	6.32729
33.88	6.36347
33.89	6.3615
33.9	6.34801
33.91	6.36512
33.92	6.31906
33.93	6.29801
33.94	6.38551
33.95	6.37334
33.96	6.3615
33.97	6.28913
33.98	6.35689
33.99	6.30854
34	6.33617
34.01	6.31577
34.02	6.36216
34.03	6.35492
34.04	6.299
34.05	6.37203
34.06	6.33749
34.07	6.29538
34.08	6.30623
34.09	6.36117
34.1	6.31709
34.11	6.33321
34.12	6.33189
34.13	6.34702
34.14	6.33781
34.15	6.41446
34.16	6.39703
34.17	6.3217
34.18	6.34834
34.19	6.33946
34.2	6.34077
34.21	6.3615
34.22	6.32005
34.23	6.34242
34.24	6.32071
34.25	6.3286
34.26	6.3036
34.27	6.33288
34.28	6.30623
34.29	6.32663
34.3	6.31084
34.31	6.31545
34.32	6.34768
34.33	6.35393
34.34	6.32663
34.35	6.4013
34.36	6.35854
34.37	6.3615
34.38	6.3342
34.39	6.32926
34.4	6.29966
34.41	6.3013
34.42	6.29242
34.43	6.32301
34.44	6.31248
34.45	6.26742
34.46	6.30919
34.47	6.34176
34.48	6.35624
34.49	6.30656
34.5	6.34472
34.51	6.36874
34.52	6.33255
34.53	6.36841
34.54	6.34637
34.55	6.30064
34.56	6.35656
34.57	6.3717
34.58	6.3661
34.59	6.40525
34.6	6.35755
34.61	6.2888
34.62	6.34077
34.63	6.32367
34.64	6.32564
34.65	6.30985
34.66	6.29801
34.67	6.31018
34.68	6.34209
34.69	6.38124
34.7	6.299
34.71	6.28715
34.72	6.30919
34.73	6.29571
34.74	6.29341
34.75	6.32663
34.76	6.33749
34.77	6.30426
34.78	6.30821
34.79	6.30854
34.8	6.28946
34.81	6.31742
34.82	6.33847
34.83	6.29834
34.84	6.40393
34.85	6.34702
34.86	6.34374
34.87	6.34374
34.88	6.31808
34.89	6.31084
34.9	6.31545
34.91	6.32926
34.92	6.32893
34.93	6.34374
34.94	6.33321
34.95	6.31216
34.96	6.34768
34.97	6.38782
34.98	6.36446
34.99	6.3411
35	6.34571
35.01	6.29308
35.02	6.33814
35.03	6.32367
35.04	6.34735
35.05	6.2888
35.06	6.38551
35.07	6.29604
35.08	6.33452
35.09	6.30064
35.1	6.34999
35.11	6.33387
35.12	6.35591
35.13	6.37268
35.14	6.3342
35.15	6.35525
35.16	6.30919
35.17	6.31512
35.18	6.27038
35.19	6.349
35.2	6.35328
35.21	6.34308
35.22	6.27367
35.23	6.30064
35.24	6.33091
35.25	6.25886
35.26	6.33617
35.27	6.33058
35.28	6.32301
35.29	6.35229
35.3	6.37992
35.31	6.33814
35.32	6.33189
35.33	6.34505
35.34	6.31183
35.35	6.31873
35.36	6.33387
35.37	6.30031
35.38	6.33124
35.39	6.36545
35.4	6.32466
35.41	6.23353
35.42	6.29341
35.43	6.32104
35.44	6.31808
35.45	6.31347
35.46	6.31347
35.47	6.30887
35.48	6.30097
35.49	6.35163
35.5	6.33354
35.51	6.34966
35.52	6.35426
35.53	6.31808
35.54	6.36907
35.55	6.32762
35.56	6.29044
35.57	6.35229
35.58	6.3161
35.59	6.33584
35.6	6.31347
35.61	6.25886
35.62	6.27038
35.63	6.29308
35.64	6.33617
35.65	6.29702
35.66	6.33485
35.67	6.36742
35.68	6.37828
35.69	6.32992
35.7	6.37005
35.71	6.35064
35.72	6.2865
35.73	6.30722
35.74	6.29143
35.75	6.33781
35.76	6.35229
35.77	6.33683
35.78	6.31676
35.79	6.31676
35.8	6.32466
35.81	6.31873
35.82	6.34077
35.83	6.33781
35.84	6.35064
35.85	6.3138
35.86	6.34735
35.87	6.30262
35.88	6.29439
35.89	6.32367
35.9	6.33749
35.91	6.35196
35.92	6.34999
35.93	6.34571
35.94	6.28683
35.95	6.29373
35.96	6.37959
35.97	6.31347
35.98	6.31347
35.99	6.33222
36	6.3513
36.01	6.32762
36.02	6.3342
36.03	6.35295
36.04	6.38157
36.05	6.36183
36.06	6.34604
36.07	6.32104
36.08	6.3638
36.09	6.33749
36.1	6.30854
36.11	6.30952
36.12	6.34801
36.13	6.33091
36.14	6.3661
36.15	6.31413
36.16	6.32729
36.17	6.33288
36.18	6.34045
36.19	6.3513
36.2	6.36643
36.21	6.30919
36.22	6.35887
36.23	6.32301
36.24	6.3513
36.25	6.33189
36.26	6.31873
36.27	6.35262
36.28	6.32926
36.29	6.31873
36.3	6.32498
36.31	6.28584
36.32	6.34209
36.33	6.34406
36.34	6.30393
36.35	6.29505
36.36	6.3615
36.37	6.35229
36.38	6.34702
36.39	6.34406
36.4	6.41479
36.41	6.29341
36.42	6.27268
36.43	6.32729
36.44	6.29966
36.45	6.27663
36.46	6.29768
36.47	6.31972
36.48	6.31676
36.49	6.33255
36.5	6.29801
36.51	6.25525
36.52	6.30689
36.53	6.30492
36.54	6.33124
36.55	6.30492
36.56	6.31512
36.57	6.30229
36.58	6.28387
36.59	6.31051
36.6	6.33058
36.61	6.32301
36.62	6.35196
36.63	6.33452
36.64	6.38222
36.65	6.32597
36.66	6.31051
36.67	6.26248
36.68	6.34735
36.69	6.32038
36.7	6.26775
36.71	6.29176
36.72	6.28288
36.73	6.26676
36.74	6.29604
36.75	6.25294
36.76	6.2809
36.77	6.36249
36.78	6.30393
36.79	6.31084
36.8	6.29735
36.81	6.29735
36.82	6.32893
36.83	6.32729
36.84	6.30229
36.85	6.30985
36.86	6.34176
36.87	6.33354
36.88	6.32466
36.89	6.34242
36.9	6.34735
36.91	6.32795
36.92	6.31446
36.93	6.33189
36.94	6.35788
36.95	6.38222
36.96	6.37663
36.97	6.35525
36.98	6.31512
36.99	6.34374
37	6.34242
37.01	6.35262
37.02	6.32663
37.03	6.3263
37.04	6.30525
37.05	6.25886
37.06	6.30722
37.07	6.33749
37.08	6.29669
37.09	6.32696
37.1	6.35163
37.11	6.33485
37.12	6.36413
37.13	6.34768
37.14	6.33946
37.15	6.36117
37.16	6.3467
37.17	6.30525
37.18	6.29867
37.19	6.30459
37.2	6.33387
37.21	6.35262
37.22	6.29012
37.23	6.32301
37.24	6.34045
37.25	6.32433
37.26	6.349
37.27	6.31643
37.28	6.29768
37.29	6.30459
37.3	6.34966
37.31	6.3536
37.32	6.32104
37.33	6.32498
37.34	6.33518
37.35	6.34374
37.36	6.32795
37.37	6.30558
37.38	6.31413
37.39	6.32071
37.4	6.37597
37.41	6.37795
37.42	6.38551
37.43	6.30722
37.44	6.26511
37.45	6.30163
37.46	6.3115
37.47	6.28715
37.48	6.32531
37.49	6.38025
37.5	6.33058
37.51	6.2809
37.52	6.31479
37.53	6.2911
37.54	6.26742
37.55	6.30591
37.56	6.29242
37.57	6.30788
37.58	6.36446
37.59	6.35459
37.6	6.28156
37.61	6.31808
37.62	6.35196
37.63	6.35163
37.64	6.30294
37.65	6.30887
37.66	6.36709
37.67	6.35887
37.68	6.30821
37.69	6.33058
37.7	6.32663
37.71	6.34966
37.72	6.38189
37.73	6.32827
37.74	6.34538
37.75	6.33288
37.76	6.27959
37.77	6.34472
37.78	6.35262
37.79	6.35492
37.8	6.31183
37.81	6.35393
37.82	6.34702
37.83	6.34999
37.84	6.32235
37.85	6.28847
37.86	6.38025
37.87	6.32531
37.88	6.30163
37.89	6.24669
37.9	6.32137
37.91	6.33354
37.92	6.34308
37.93	6.32827
37.94	6.31281
37.95	6.2684
37.96	6.29406
37.97	6.27926
37.98	6.30525
37.99	6.28979
38	6.31018
38.01	6.34439
38.02	6.35722
38.03	6.32597
38.04	6.34045
38.05	6.31841
38.06	6.35788
38.07	6.26117
38.08	6.29604
38.09	6.29768
38.1	6.28452
38.11	6.29044
38.12	6.32663
38.13	6.31117
38.14	6.27827
38.15	6.30755
38.16	6.3115
38.17	6.33058
38.18	6.30821
38.19	6.31972
38.2	6.2763
38.21	6.29768
38.22	6.30492
38.23	6.30262
38.24	6.35163
38.25	6.36216
38.26	6.35031
38.27	6.31183
38.28	6.31281
38.29	6.30887
38.3	6.27794
38.31	6.30525
38.32	6.24209
38.33	6.27005
38.34	6.32597
38.35	6.32104
38.36	6.27498
38.37	6.27465
38.38	6.31841
38.39	6.36018
38.4	6.35689
38.41	6.29275
38.42	6.34834
38.43	6.34801
38.44	6.29308
38.45	6.34933
38.46	6.31479
38.47	6.30854
38.48	6.33255
38.49	6.27169
38.5	6.33156
38.51	6.38288
38.52	6.34308
38.53	6.33288
38.54	6.324
38.55	6.33189
38.56	6.33814
38.57	6.31972
38.58	6.37597
38.59	6.27663
38.6	6.26643
38.61	6.30722
38.62	6.34571
38.63	6.34209
38.64	6.29867
38.65	6.28485
38.66	6.3286
38.67	6.35591
38.68	6.34538
38.69	6.31051
38.7	6.27959
38.71	6.30623
38.72	6.31906
38.73	6.31873
38.74	6.36216
38.75	6.3592
38.76	6.35196
38.77	6.33584
38.78	6.28321
38.79	6.29768
38.8	6.29571
38.81	6.27696
38.82	6.27531
38.83	6.27827
38.84	6.31051
38.85	6.3263
38.86	6.32795
38.87	6.33222
38.88	6.349
38.89	6.32795
38.9	6.249
38.91	6.28518
38.92	6.3013
38.93	6.30755
38.94	6.25952
38.95	6.28913
38.96	6.27696
38.97	6.30558
38.98	6.29998
38.99	6.30755
39	6.31183
39.01	6.30591
39.02	6.29275
39.03	6.28913
39.04	6.32795
39.05	6.31084
39.06	6.30196
39.07	6.31183
39.08	6.30656
39.09	6.34966
39.1	6.3411
39.11	6.35328
39.12	6.33913
39.13	6.32466
39.14	6.35097
39.15	6.29012
39.16	6.32531
39.17	6.30426
39.18	6.32992
39.19	6.34406
39.2	6.35426
39.21	6.33716
39.22	6.33189
39.23	6.34045
39.24	6.28255
39.25	6.27104
39.26	6.32137
39.27	6.33979
39.28	6.30229
39.29	6.32827
39.3	6.31117
39.31	6.23715
39.32	6.30459
39.33	6.27959
39.34	6.28814
39.35	6.32202
39.36	6.29768
39.37	6.34045
39.38	6.33156
39.39	6.35426
39.4	6.37137
39.41	6.30689
39.42	6.29801
39.43	6.31117
39.44	6.2888
39.45	6.2786
39.46	6.32367
39.47	6.32531
39.48	6.31347
39.49	6.30985
39.5	6.33058
39.51	6.3342
39.52	6.30294
39.53	6.34143
39.54	6.31413
39.55	6.32597
39.56	6.37992
39.57	6.3467
39.58	6.34176
39.59	6.27992
39.6	6.2763
39.61	6.30525
39.62	6.32235
39.63	6.31216
39.64	6.31183
39.65	6.2911
39.66	6.30426
39.67	6.29801
39.68	6.34012
39.69	6.3286
39.7	6.34801
39.71	6.324
39.72	6.2911
39.73	6.299
39.74	6.33485
39.75	6.2865
39.76	6.31446
39.77	6.33814
39.78	6.34472
39.79	6.29867
39.8	6.25689
39.81	6.33946
39.82	6.31248
39.83	6.30229
39.84	6.28288
39.85	6.26709
39.86	6.28485
39.87	6.30229
39.88	6.31248
39.89	6.26347
39.9	6.27762
39.91	6.30525
39.92	6.35393
39.93	6.36643
39.94	6.28847
39.95	6.28485
39.96	6.32893
39.97	6.33222
39.98	6.31479
39.99	6.3467
40	6.34472
40.01	6.28913
40.02	6.32762
40.03	6.29505
40.04	6.29406
40.05	6.36018
40.06	6.32104
40.07	6.36314
40.08	6.33387
40.09	6.30722
40.1	6.30821
40.11	6.31545
40.12	6.28485
40.13	6.29341
40.14	6.30788
40.15	6.36512
40.16	6.29472
40.17	6.31939
40.18	6.28617
40.19	6.29604
40.2	6.33156
40.21	6.33025
40.22	6.29044
40.23	6.33124
40.24	6.32005
40.25	6.32334
40.26	6.27827
40.27	6.31841
40.28	6.29341
40.29	6.35624
40.3	6.3411
40.31	6.30031
40.32	6.29406
40.33	6.30722
40.34	6.38124
40.35	6.36545
40.36	6.31479
40.37	6.31314
40.38	6.33091
40.39	6.30459
40.4	6.31709
40.41	6.36742
40.42	6.32005
40.43	6.32433
40.44	6.35492
40.45	6.31117
40.46	6.32466
40.47	6.34077
40.48	6.35295
40.49	6.29275
40.5	6.29077
40.51	6.32466
40.52	6.28123
40.53	6.31479
40.54	6.30163
40.55	6.34505
40.56	6.3411
40.57	6.33551
40.58	6.24998
40.59	6.32564
40.6	6.3467
40.61	6.35229
40.62	6.3365
40.63	6.33452
40.64	6.37433
40.65	6.34374
40.66	6.35722
40.67	6.38782
40.68	6.349
40.69	6.3467
40.7	6.30854
40.71	6.33288
40.72	6.31775
40.73	6.324
40.74	6.35656
40.75	6.34275
40.76	6.33288
40.77	6.30952
40.78	6.36117
40.79	6.35163
40.8	6.3536
40.81	6.35163
40.82	6.34702
40.83	6.31051
40.84	6.29439
40.85	6.33584
40.86	6.3263
40.87	6.34012
40.88	6.29998
40.89	6.30558
40.9	6.3365
40.91	6.31873
40.92	6.29012
40.93	6.31873
40.94	6.3615
40.95	6.37104
40.96	6.34341
40.97	6.30459
40.98	6.26577
40.99	6.27433
41	6.33025
41.01	6.31446
41.02	6.30854
41.03	6.28913
41.04	6.31314
41.05	6.33551
41.06	6.30262
41.07	6.32005
41.08	6.33814
41.09	6.30755
41.1	6.31906
41.11	6.30689
41.12	6.31347
41.13	6.33485
41.14	6.3286
41.15	6.27498
41.16	6.34604
41.17	6.32433
41.18	6.29505
41.19	6.30031
41.2	6.36446
41.21	6.3638
41.22	6.33058
41.23	6.324
41.24	6.30393
41.25	6.33288
41.26	6.29735
41.27	6.31051
41.28	6.28946
41.29	6.30492
41.3	6.35722
41.31	6.3342
41.32	6.2911
41.33	6.32071
41.34	6.35393
41.35	6.29044
41.36	6.33946
41.37	6.31643
41.38	6.29505
41.39	6.33156
41.4	6.30327
41.41	6.33222
41.42	6.31643
41.43	6.31972
41.44	6.2888
41.45	6.28946
41.46	6.32235
41.47	6.28058
41.48	6.30525
41.49	6.31643
41.5	6.29505
41.51	6.33452
41.52	6.31117
41.53	6.31347
41.54	6.29637
41.55	6.32531
41.56	6.30755
41.57	6.33387
41.58	6.31808
41.59	6.3342
41.6	6.35064
41.61	6.36084
41.62	6.34012
41.63	6.35591
41.64	6.3115
41.65	6.31577
41.66	6.31545
41.67	6.28847
41.68	6.35229
41.69	6.33781
41.7	6.34768
41.71	6.31939
41.72	6.27465
41.73	6.33913
41.74	6.31873
41.75	6.29472
41.76	6.37992
41.77	6.32071
41.78	6.29242
41.79	6.30327
41.8	6.3342
41.81	6.34505
41.82	6.32498
41.83	6.30229
41.84	6.33913
41.85	6.32433
41.86	6.35755
41.87	6.31676
41.88	6.30591
41.89	6.32696
41.9	6.28781
41.91	6.29406
41.92	6.34472
41.93	6.31018
41.94	6.23979
41.95	6.34242
41.96	6.29472
41.97	6.28189
41.98	6.32696
41.99	6.2809
42	6.32795
42.01	6.32202
42.02	6.36742
42.03	6.3592
42.04	6.31643
42.05	6.28748
42.06	6.36314
42.07	6.34242
42.08	6.32038
42.09	6.27696
42.1	6.29439
42.11	6.33617
42.12	6.29637
42.13	6.3263
42.14	6.32433
42.15	6.29735
42.16	6.3638
42.17	6.31512
42.18	6.274
42.19	6.30294
42.2	6.34308
42.21	6.30591
42.22	6.33222
42.23	6.3138
42.24	6.3263
42.25	6.2865
42.26	6.24932
42.27	6.25854
42.28	6.27597
42.29	6.29209
42.3	6.26709
42.31	6.32893
42.32	6.29735
42.33	6.31248
42.34	6.30952
42.35	6.31841
42.36	6.30492
42.37	6.33485
42.38	6.34242
42.39	6.30459
42.4	6.27367
42.41	6.3036
42.42	6.32498
42.43	6.31216
42.44	6.32071
42.45	6.28025
42.46	6.32992
42.47	6.33617
42.48	6.3263
42.49	6.33222
42.5	6.28748
42.51	6.32137
42.52	6.36742
42.53	6.32696
42.54	6.2786
42.55	6.30887
42.56	6.28979
42.57	6.31446
42.58	6.34176
42.59	6.32926
42.6	6.33946
42.61	6.35788
42.62	6.32597
42.63	6.30031
42.64	6.31018
42.65	6.3763
42.66	6.33222
42.67	6.29406
42.68	6.32992
42.69	6.30163
42.7	6.31183
42.71	6.29669
42.72	6.33288
42.73	6.33551
42.74	6.37696
42.75	6.3513
42.76	6.30064
42.77	6.27959
42.78	6.32795
42.79	6.33485
42.8	6.35854
42.81	6.35163
42.82	6.32301
42.83	6.31314
42.84	6.3342
42.85	6.34801
42.86	6.3138
42.87	6.32498
42.88	6.29768
42.89	6.36281
42.9	6.38124
42.91	6.30854
42.92	6.31709
42.93	6.26479
42.94	6.27433
42.95	6.29406
42.96	6.30064
42.97	6.35689
42.98	6.33781
42.99	6.36249
43	6.34176
43.01	6.34045
43.02	6.31117
43.03	6.36742
43.04	6.32005
43.05	6.29966
43.06	6.31906
43.07	6.37104
43.08	6.33255
43.09	6.31479
43.1	6.34571
43.11	6.26479
43.12	6.31018
43.13	6.36709
43.14	6.34308
43.15	6.32827
43.16	6.31479
43.17	6.32005
43.18	6.33124
43.19	6.31183
43.2	6.32564
43.21	6.30887
43.22	6.31709
43.23	6.36117
43.24	6.33781
43.25	6.36972
43.26	6.36643
43.27	6.34801
43.28	6.33781
43.29	6.31512
43.3	6.33518
43.31	6.31479
43.32	6.33617
43.33	6.34012
43.34	6.28683
43.35	6.31084
43.36	6.31906
43.37	6.36183
43.38	6.29702
43.39	6.35262
43.4	6.31446
43.41	6.33387
43.42	6.28354
43.43	6.28419
43.44	6.29801
43.45	6.29373
43.46	6.30887
43.47	6.2911
43.48	6.33058
43.49	6.31808
43.5	6.34933
43.51	6.35722
43.52	6.33255
43.53	6.28715
43.54	6.30229
43.55	6.32696
43.56	6.40361
43.57	6.38518
43.58	6.33617
43.59	6.34045
43.6	6.30492
43.61	6.33058
43.62	6.30064
43.63	6.34374
43.64	6.31446
43.65	6.31413
43.66	6.36775
43.67	6.33354
43.68	6.29505
43.69	6.28485
43.7	6.33847
43.71	6.30492
43.72	6.32334
43.73	6.31281
43.74	6.33387
43.75	6.33617
43.76	6.32959
43.77	6.35426
43.78	6.31643
43.79	6.30623
43.8	6.32564
43.81	6.31479
43.82	6.31841
43.83	6.29637
43.84	6.3013
43.85	6.27136
43.86	6.27465
43.87	6.33189
43.88	6.31479
43.89	6.28781
43.9	6.27465
43.91	6.30821
43.92	6.3286
43.93	6.37334
43.94	6.33847
43.95	6.30887
43.96	6.27235
43.97	6.32466
43.98	6.34012
43.99	6.3115
44	6.32071
44.01	6.31512
44.02	6.299
44.03	6.31808
44.04	6.3888
44.05	6.36249
44.06	6.31018
44.07	6.33091
44.08	6.26577
44.09	6.30887
44.1	6.29834
44.11	6.28979
44.12	6.30656
44.13	6.34374
44.14	6.28485
44.15	6.37235
44.16	6.34275
44.17	6.29406
44.18	6.28847
44.19	6.29768
44.2	6.30327
44.21	6.33847
44.22	6.35525
44.23	6.33847
44.24	6.32531
44.25	6.29801
44.26	6.33617
44.27	6.35393
44.28	6.29637
44.29	6.29834
44.3	6.30097
44.31	6.33716
44.32	6.32334
44.33	6.28781
44.34	6.34637
44.35	6.34275
44.36	6.31545
44.37	6.35262
44.38	6.31906
44.39	6.35328
44.4	6.38124
44.41	6.35525
44.42	6.35295
44.43	6.30591
44.44	6.29998
44.45	6.30525
44.46	6.3138
44.47	6.31676
44.48	6.26117
44.49	6.27136
44.5	6.28025
44.51	6.25031
44.52	6.27498
44.53	6.29702
44.54	6.33091
44.55	6.30623
44.56	6.28288
44.57	6.31742
44.58	6.35097
44.59	6.27794
44.6	6.30623
44.61	6.34176
44.62	6.33518
44.63	6.33156
44.64	6.33321
44.65	6.3161
44.66	6.2559
44.67	6.29801
44.68	6.3263
44.69	6.32893
44.7	6.32268
44.71	6.3263
44.72	6.27762
44.73	6.31577
44.74	6.3138
44.75	6.30722
44.76	6.28946
44.77	6.28288
44.78	6.31117
44.79	6.31709
44.8	6.31775
44.81	6.30525
44.82	6.28946
44.83	6.30854
44.84	6.33518
44.85	6.31314
44.86	6.32038
44.87	6.31051
44.88	6.30722
44.89	6.31183
44.9	6.32531
44.91	6.32334
44.92	6.33913
44.93	6.35624
44.94	6.32597
44.95	6.32531
44.96	6.31413
44.97	6.29801
44.98	6.29406
44.99	6.29308
45	6.34143
45.01	6.30985
45.02	6.30821
45.03	6.29933
45.04	6.30426
45.05	6.32038
45.06	6.30788
45.07	6.37663
45.08	6.35722
45.09	6.28354
45.1	6.31446
45.11	6.31775
45.12	6.32268
45.13	6.34571
45.14	6.33946
45.15	6.30722
45.16	6.22959
45.17	6.30327
45.18	6.33058
45.19	6.324
45.2	6.32104
45.21	6.30229
45.22	6.2911
45.23	6.23452
45.24	6.28156
45.25	6.31742
45.26	6.31808
45.27	6.33551
45.28	6.34999
45.29	6.34966
45.3	6.32005
45.31	6.31808
45.32	6.34012
45.33	6.32137
45.34	6.28189
45.35	6.33189
45.36	6.34275
45.37	6.31117
45.38	6.3411
45.39	6.31643
45.4	6.3217
45.41	6.30689
45.42	6.30591
45.43	6.34538
45.44	6.34538
45.45	6.37762
45.46	6.3786
45.47	6.28715
45.48	6.31183
45.49	6.33288
45.5	6.30492
45.51	6.26248
45.52	6.33518
45.53	6.33025
45.54	6.30887
45.55	6.30591
45.56	6.34275
45.57	6.29604
45.58	6.30689
45.59	6.30591
45.6	6.31545
45.61	6.31906
45.62	6.31808
45.63	6.28123
45.64	6.32827
45.65	6.38288
45.66	6.27301
45.67	6.29702
45.68	6.32038
45.69	6.34702
45.7	6.30919
45.71	6.32005
45.72	6.35953
45.73	6.34702
45.74	6.29571
45.75	6.36479
45.76	6.32762
45.77	6.30919
45.78	6.32959
45.79	6.3365
45.8	6.31413
45.81	6.33025
45.82	6.31413
45.83	6.29209
45.84	6.33518
45.85	6.36051
45.86	6.33189
45.87	6.3592
45.88	6.35031
45.89	6.31512
45.9	6.31906
45.91	6.28025
45.92	6.28025
45.93	6.28683
45.94	6.31841
45.95	6.33387
45.96	6.32564
45.97	6.299
45.98	6.28222
45.99	6.33189
46	6.33617
46.01	6.37005
46.02	6.27992
46.03	6.32795
46.04	6.34702
46.05	6.31906
46.06	6.33518
46.07	6.33683
46.08	6.33124
46.09	6.33847
46.1	6.324
46.11	6.3115
46.12	6.29834
46.13	6.29341
46.14	6.3286
46.15	6.31281
46.16	6.32235
46.17	6.31446
46.18	6.30064
46.19	6.27564
46.2	6.3286
46.21	6.3467
46.22	6.29571
46.23	6.29669
46.24	6.32827
46.25	6.29538
46.26	6.29768
46.27	6.34637
46.28	6.34077
46.29	6.29702
46.3	6.32433
46.31	6.26018
46.32	6.22794
46.33	6.274
46.34	6.31084
46.35	6.29735
46.36	6.3161
46.37	6.2661
46.38	6.27729
46.39	6.28748
46.4	6.35492
46.41	6.33847
46.42	6.31742
46.43	6.34867
46.44	6.34275
46.45	6.28551
46.46	6.36808
46.47	6.31314
46.48	6.31676
46.49	6.35558
46.5	6.3786
46.51	6.38091
46.52	6.33518
46.53	6.34735
46.54	6.30656
46.55	6.31643
46.56	6.29341
46.57	6.28715
46.58	6.32334
46.59	6.30656
46.6	6.28452
46.61	6.33847
46.62	6.32367
46.63	6.28748
46.64	6.299
46.65	6.31117
46.66	6.30262
46.67	6.27038
46.68	6.33091
46.69	6.35196
46.7	6.31709
46.71	6.37137
46.72	6.30294
46.73	6.29669
46.74	6.33452
46.75	6.33781
46.76	6.33452
46.77	6.31545
46.78	6.36742
46.79	6.32005
46.8	6.31347
46.81	6.32531
46.82	6.3513
46.83	6.31906
46.84	6.31051
46.85	6.33354
46.86	6.33288
46.87	6.2888
46.88	6.38387
46.89	6.31413
46.9	6.35525
46.91	6.33716
46.92	6.35064
46.93	6.34966
46.94	6.36545
46.95	6.34571
46.96	6.31775
46.97	6.34801
46.98	6.34735
46.99	6.37367
47	6.31314
47.01	6.31183
47.02	6.32038
47.03	6.31018
47.04	6.31775
47.05	6.29571
47.06	6.29998
47.07	6.25031
47.08	6.27992
47.09	6.27794
47.1	6.30196
47.11	6.28715
47.12	6.324
47.13	6.37959
47.14	6.32926
47.15	6.31742
47.16	6.35492
47.17	6.3365
47.18	6.28847
47.19	6.33946
47.2	6.32762
47.21	6.33058
47.22	6.37137
47.23	6.34834
47.24	6.35722
47.25	6.32729
47.26	6.30689
47.27	6.31051
47.28	6.30525
47.29	6.33354
47.3	6.33058
47.31	6.34505
47.32	6.30525
47.33	6.32795
47.34	6.32071
47.35	6.31018
47.36	6.3661
47.37	6.33847
47.38	6.31051
47.39	6.29505
47.4	6.33354
47.41	6.31972
47.42	6.32334
47.43	6.3638
47.44	6.35097
47.45	6.33749
47.46	6.30854
47.47	6.34505
47.48	6.33979
47.49	6.32893
47.5	6.30952
47.51	6.31972
47.52	6.32762
47.53	6.32202
47.54	6.31676
47.55	6.33617
47.56	6.28979
47.57	6.26084
47.58	6.3013
47.59	6.34867
47.6	6.30854
47.61	6.28617
47.62	6.34439
47.63	6.32926
47.64	6.3365
47.65	6.31051
47.66	6.23682
47.67	6.2809
47.68	6.3036
47.69	6.27301
47.7	6.28321
47.71	6.24768
47.72	6.31314
47.73	6.25426
47.74	6.29834
47.75	6.30788
47.76	6.33617
47.77	6.3263
47.78	6.28584
47.79	6.35591
47.8	6.31545
47.81	6.32663
47.82	6.31248
47.83	6.30393
47.84	6.30689
47.85	6.30788
47.86	6.3036
47.87	6.33288
47.88	6.34374
47.89	6.33749
47.9	6.30459
47.91	6.28913
47.92	6.32762
47.93	6.34439
47.94	6.32268
47.95	6.33387
47.96	6.28847
47.97	6.30525
47.98	6.30722
47.99	6.28551
48	6.34999
48.01	6.31775
48.02	6.31545
48.03	6.31709
48.04	6.3217
48.05	6.36216
48.06	6.32268
48.07	6.27992
48.08	6.3342
48.09	6.30327
48.1	6.29242
48.11	6.30854
48.12	6.28781
48.13	6.35097
48.14	6.29341
48.15	6.31314
48.16	6.34768
48.17	6.31512
48.18	6.29275
48.19	6.30656
48.2	6.3138
48.21	6.374
48.22	6.28748
48.23	6.28913
48.24	6.32235
48.25	6.30656
48.26	6.34242
48.27	6.39505
48.28	6.33617
48.29	6.29768
48.3	6.32762
48.31	6.37729
48.32	6.34801
48.33	6.30985
48.34	6.26873
48.35	6.32893
48.36	6.35591
48.37	6.30459
48.38	6.32268
48.39	6.31906
48.4	6.32005
48.41	6.30229
48.42	6.30525
48.43	6.31972
48.44	6.30229
48.45	6.34308
48.46	6.33584
48.47	6.31216
48.48	6.27597
48.49	6.30294
48.5	6.28617
48.51	6.26183
48.52	6.27301
48.53	6.35163
48.54	6.28617
48.55	6.31841
48.56	6.30919
48.57	6.30591
48.58	6.33321
48.59	6.29998
48.6	6.22827
48.61	6.30262
48.62	6.31018
48.63	6.34242
48.64	6.35887
48.65	6.3388
48.66	6.30229
48.67	6.29373
48.68	6.29571
48.69	6.30327
48.7	6.28617
48.71	6.29143
48.72	6.26511
48.73	6.33354
48.74	6.29143
48.75	6.27301
48.76	6.31281
48.77	6.33124
48.78	6.29012
48.79	6.36117
48.8	6.36512
48.81	6.3717
48.82	6.30229
48.83	6.29867
48.84	6.29012
48.85	6.30064
48.86	6.3286
48.87	6.32071
48.88	6.28617
48.89	6.2888
48.9	6.32104
48.91	6.30656
48.92	6.30887
48.93	6.25919
48.94	6.299
48.95	6.29341
48.96	6.30689
48.97	6.2888
48.98	6.32235
48.99	6.3263
49	6.30327
49.01	6.30393
49.02	6.32268
49.03	6.30459
49.04	6.31314
49.05	6.31051
49.06	6.31479
49.07	6.31808
49.08	6.3263
49.09	6.30919
49.1	6.22794
49.11	6.28814
49.12	6.30887
49.13	6.27959
49.14	6.30788
49.15	6.29275
49.16	6.2536
49.17	6.29571
49.18	6.31742
49.19	6.3513
49.2	6.34933
49.21	6.33913
49.22	6.31577
49.23	6.31676
49.24	6.31413
49.25	6.25031
49.26	6.31216
49.27	6.32729
49.28	6.3263
49.29	6.32959
49.3	6.29406
49.31	6.28058
49.32	6.31216
49.33	6.35064
49.34	6.36413
49.35	6.30656
49.36	6.32137
49.37	6.33551
49.38	6.26906
49.39	6.33156
49.4	6.3388
49.41	6.31643
49.42	6.34505
49.43	6.30558
49.44	6.27433
49.45	6.26775
49.46	6.28321
49.47	6.33485
49.48	6.34604
49.49	6.27202
49.5	6.30492
49.51	6.32268
49.52	6.32268
49.53	6.35591
49.54	6.3263
49.55	6.2865
49.56	6.30558
49.57	6.34242
49.58	6.32301
49.59	6.27268
49.6	6.28123
49.61	6.32729
49.62	6.30985
49.63	6.26939
49.64	6.31841
49.65	6.33058
49.66	6.28354
49.67	6.31248
49.68	6.3115
49.69	6.26775
49.7	6.34275
49.71	6.3263
49.72	6.30426
49.73	6.28058
49.74	6.35426
49.75	6.34702
49.76	6.30919
49.77	6.34176
49.78	6.3138
49.79	6.2615
49.8	6.32795
49.81	6.30919
49.82	6.274
49.83	6.34242
49.84	6.29933
49.85	6.30689
49.86	6.34604
49.87	6.29044
49.88	6.29538
49.89	6.28156
49.9	6.3036
49.91	6.3411
49.92	6.30525
49.93	6.33354
49.94	6.29768
49.95	6.29735
49.96	6.28584
49.97	6.30722
49.98	6.3286
49.99	6.28452
50	6.24406
