"BIO-KINE ASCII FILE"
"_COMMENT"	"MOS-500 Spectrometer"
"_COMMENT"	"Kinetics measurement"
"_COMMENT"	"Y Unit : Volt,  X Unit : s"
"_COMMENT"	"Excitation wavelength : 380 nm"
"_COMMENT"	"Fentes bandwidth =  1 nm"
"_COMMENT"	"HV= 750V"
"_COMMENT"	"Timebase  1 =  .01 s   3001 pts"
"_SFM"	"SFM-400 /S  Advanced mode"
"_SFM"	"Ratio : S1: 2.5, S2: 0, S3: 0, S4: 1"
"_SFM"	"Content : S1: , S2: , S3: , S4:"
"_SFM"	"Concentration : S1: , S2: , S3: , S4:"
"_SFM"	"Total volume : 209 µl  Flow : 3.5 mL/s"
"_SFM"	"Acquisition start :  10 ms before stop"
"_SFM"	"cuve=FC-15, s1=10 ml , s2=10 ml , s3=10 ml , s4=1.9 ml"
"_UNITX"	"s"
"_UNITY"	"Volt"
"_DELTAX"	0
"_DATA"
1e-300	6.55822
0.01	7.08027
0.02	7.34705
0.03	7.38225
0.04	7.37896
0.05	7.38554
0.06	7.38488
0.07	7.39804
0.08	7.38916
0.09	7.39936
0.1	7.40758
0.11	7.40232
0.12	7.38883
0.13	7.38488
0.14	7.38488
0.15	7.38718
0.16	7.37896
0.17	7.37699
0.18	7.40001
0.19	7.38126
0.2	7.37501
0.21	7.39212
0.22	7.36975
0.23	7.36416
0.24	7.36778
0.25	7.35791
0.26	7.36021
0.27	7.35133
0.28	7.34179
0.29	7.35922
0.3	7.34771
0.31	7.3362
0.32	7.34442
0.33	7.35692
0.34	7.32468
0.35	7.31646
0.36	7.32139
0.37	7.32995
0.38	7.30198
0.39	7.30856
0.4	7.30495
0.41	7.29508
0.42	7.29837
0.43	7.28652
0.44	7.27337
0.45	7.28126
0.46	7.2931
0.47	7.27567
0.48	7.27896
0.49	7.25231
0.5	7.25396
0.51	7.2579
0.52	7.25396
0.53	7.24869
0.54	7.22665
0.55	7.22402
0.56	7.21744
0.57	7.21777
0.58	7.20988
0.59	7.20494
0.6	7.19672
0.61	7.19277
0.62	7.20001
0.63	7.18915
0.64	7.1829
0.65	7.18718
0.66	7.18027
0.67	7.16547
0.68	7.14705
0.69	7.14178
0.7	7.15198
0.71	7.14573
0.72	7.14803
0.73	7.11514
0.74	7.1181
0.75	7.12402
0.76	7.11152
0.77	7.12172
0.78	7.11612
0.79	7.08652
0.8	7.08882
0.81	7.08553
0.82	7.06514
0.83	7.07533
0.84	7.07435
0.85	7.08652
0.86	7.05889
0.87	7.0625
0.88	7.05066
0.89	7.05527
0.9	7.06678
0.91	7.05033
0.92	7.0431
0.93	7.0102
0.94	7.00691
0.95	7.00987
0.96	7.02139
0.97	7.01481
0.98	7.01349
0.99	6.99638
1	6.99869
1.01	6.98717
1.02	6.98125
1.03	6.97994
1.04	6.98684
1.05	6.98454
1.06	6.9648
1.07	6.93948
1.08	6.95527
1.09	6.93882
1.1	6.93684
1.11	6.94967
1.12	6.93421
1.13	6.92303
1.14	6.92566
1.15	6.93092
1.16	6.91678
1.17	6.89572
1.18	6.87599
1.19	6.88849
1.2	6.88388
1.21	6.89013
1.22	6.87303
1.23	6.87007
1.24	6.87664
1.25	6.86118
1.26	6.85625
1.27	6.8477
1.28	6.84704
1.29	6.84408
1.3	6.83783
1.31	6.82467
1.32	6.81776
1.33	6.79671
1.34	6.78223
1.35	6.80723
1.36	6.80098
1.37	6.79375
1.38	6.78717
1.39	6.77105
1.4	6.76019
1.41	6.77368
1.42	6.76776
1.43	6.75987
1.44	6.75362
1.45	6.7523
1.46	6.74671
1.47	6.73914
1.48	6.7148
1.49	6.725
1.5	6.74506
1.51	6.72335
1.52	6.71052
1.53	6.71052
1.54	6.71579
1.55	6.70065
1.56	6.69769
1.57	6.69111
1.58	6.68453
1.59	6.67236
1.6	6.67499
1.61	6.66776
1.62	6.66545
1.63	6.66381
1.64	6.64703
1.65	6.64407
1.66	6.63881
1.67	6.64736
1.68	6.63585
1.69	6.63651
1.7	6.6171
1.71	6.59703
1.72	6.62499
1.73	6.59506
1.74	6.58651
1.75	6.58387
1.76	6.58585
1.77	6.59308
1.78	6.5819
1.79	6.57664
1.8	6.56545
1.81	6.56611
1.82	6.56118
1.83	6.5569
1.84	6.54111
1.85	6.54078
1.86	6.53585
1.87	6.53453
1.88	6.51874
1.89	6.51381
1.9	6.49933
1.91	6.52499
1.92	6.52894
1.93	6.50723
1.94	6.50624
1.95	6.51742
1.96	6.50131
1.97	6.47696
1.98	6.4615
1.99	6.47137
2	6.4638
2.01	6.46644
2.02	6.45163
2.03	6.44111
2.04	6.45394
2.05	6.45032
2.06	6.45328
2.07	6.43157
2.08	6.42334
2.09	6.41117
2.1	6.4092
2.11	6.40953
2.12	6.39768
2.13	6.39538
2.14	6.39143
2.15	6.39571
2.16	6.40624
2.17	6.39242
2.18	6.36939
2.19	6.36742
2.2	6.38124
2.21	6.37729
2.22	6.36018
2.23	6.35064
2.24	6.35788
2.25	6.35525
2.26	6.36314
2.27	6.33255
2.28	6.31577
2.29	6.31873
2.3	6.29308
2.31	6.3036
2.32	6.31775
2.33	6.31248
2.34	6.30558
2.35	6.30591
2.36	6.29077
2.37	6.27235
2.38	6.27235
2.39	6.27433
2.4	6.28189
2.41	6.26347
2.42	6.25229
2.43	6.25492
2.44	6.24965
2.45	6.24307
2.46	6.24538
2.47	6.20426
2.48	6.23189
2.49	6.24242
2.5	6.21709
2.51	6.22235
2.52	6.21478
2.53	6.19998
2.54	6.21446
2.55	6.19143
2.56	6.18353
2.57	6.18617
2.58	6.18057
2.59	6.18847
2.6	6.18617
2.61	6.16445
2.62	6.15919
2.63	6.15886
2.64	6.14899
2.65	6.13518
2.66	6.14636
2.67	6.13156
2.68	6.13945
2.69	6.11873
2.7	6.1184
2.71	6.12564
2.72	6.12268
2.73	6.12169
2.74	6.1059
2.75	6.08814
2.76	6.09768
2.77	6.08518
2.78	6.08781
2.79	6.08583
2.8	6.06873
2.81	6.0582
2.82	6.07925
2.83	6.06873
2.84	6.04932
2.85	6.04702
2.86	6.02991
2.87	6.05458
2.88	6.0309
2.89	6.02531
2.9	6.04537
2.91	6.02234
2.92	6.01182
2.93	6.01248
2.94	6.01741
2.95	6.00984
2.96	6.00787
2.97	5.9878
2.98	5.98715
2.99	5.98616
3	5.99702
3.01	5.98649
3.02	5.97761
3.03	5.97794
3.04	5.95557
3.05	5.94932
3.06	5.9434
3.07	5.94833
3.08	5.95096
3.09	5.93846
3.1	5.9207
3.11	5.9151
3.12	5.91083
3.13	5.92234
3.14	5.92432
3.15	5.90951
3.16	5.91708
3.17	5.89438
3.18	5.89241
3.19	5.89767
3.2	5.88451
3.21	5.89109
3.22	5.89175
3.23	5.873
3.24	5.87168
3.25	5.873
3.26	5.85359
3.27	5.86774
3.28	5.85491
3.29	5.85129
3.3	5.85129
3.31	5.8276
3.32	5.83648
3.33	5.83944
3.34	5.82464
3.35	5.82563
3.36	5.81971
3.37	5.81708
3.38	5.82267
3.39	5.81247
3.4	5.81379
3.41	5.80819
3.42	5.78681
3.43	5.78681
3.44	5.78286
3.45	5.77826
3.46	5.78484
3.47	5.7776
3.48	5.76115
3.49	5.75622
3.5	5.75753
3.51	5.76905
3.52	5.75359
3.53	5.73681
3.54	5.73747
3.55	5.72859
3.56	5.72135
3.57	5.72464
3.58	5.72628
3.59	5.72036
3.6	5.72234
3.61	5.70326
3.62	5.70984
3.63	5.71707
3.64	5.69405
3.65	5.68385
3.66	5.70457
3.67	5.69306
3.68	5.66773
3.69	5.67595
3.7	5.67957
3.71	5.66905
3.72	5.65589
3.73	5.66115
3.74	5.66674
3.75	5.64766
3.76	5.66279
3.77	5.65786
3.78	5.64372
3.79	5.63516
3.8	5.61773
3.81	5.62595
3.82	5.63121
3.83	5.61378
3.84	5.6151
3.85	5.62793
3.86	5.60852
3.87	5.61345
3.88	5.59569
3.89	5.5845
3.9	5.58746
3.91	5.597
3.92	5.58154
3.93	5.58417
3.94	5.57266
3.95	5.572
3.96	5.5595
3.97	5.55227
3.98	5.56444
3.99	5.56806
4	5.55555
4.01	5.54898
4.02	5.5493
4.03	5.53549
4.04	5.54503
4.05	5.53713
4.06	5.53713
4.07	5.52661
4.08	5.51937
4.09	5.51838
4.1	5.50983
4.11	5.49338
4.12	5.50391
4.13	5.50884
4.14	5.49042
4.15	5.50819
4.16	5.49865
4.17	5.49733
4.18	5.48088
4.19	5.48022
4.2	5.47332
4.21	5.46904
4.22	5.46443
4.23	5.47035
4.24	5.46575
4.25	5.45983
4.26	5.46114
4.27	5.45555
4.28	5.44009
4.29	5.44601
4.3	5.45193
4.31	5.43976
4.32	5.4197
4.33	5.42101
4.34	5.41706
4.35	5.41805
4.36	5.41805
4.37	5.41016
4.38	5.41509
4.39	5.40062
4.4	5.40621
4.41	5.40292
4.42	5.39535
4.43	5.40621
4.44	5.39239
4.45	5.36904
4.46	5.36279
4.47	5.37956
4.48	5.38154
4.49	5.3766
4.5	5.37923
4.51	5.35621
4.52	5.33647
4.53	5.34601
4.54	5.35818
4.55	5.35456
4.56	5.3516
4.57	5.34469
4.58	5.32101
4.59	5.32561
4.6	5.33384
4.61	5.31542
4.62	5.31344
4.63	5.31377
4.64	5.30917
4.65	5.29667
4.66	5.30884
4.67	5.30818
4.68	5.28976
4.69	5.28713
4.7	5.28318
4.71	5.28252
4.72	5.26607
4.73	5.27693
4.74	5.27397
4.75	5.26903
4.76	5.27528
4.77	5.27101
4.78	5.2664
4.79	5.26969
4.8	5.26805
4.81	5.2618
4.82	5.25785
4.83	5.25226
4.84	5.24666
4.85	5.24699
4.86	5.23943
4.87	5.22101
4.88	5.23745
4.89	5.24337
4.9	5.23811
4.91	5.21443
4.92	5.21179
4.93	5.22331
4.94	5.20489
4.95	5.21344
4.96	5.2187
4.97	5.22166
4.98	5.19765
4.99	5.19897
5	5.20653
5.01	5.18646
5.02	5.1766
5.03	5.19206
5.04	5.18318
5.05	5.17725
5.06	5.17989
5.07	5.1789
5.08	5.16475
5.09	5.15916
5.1	5.16377
5.11	5.14633
5.12	5.15291
5.13	5.1539
5.14	5.16508
5.15	5.15127
5.16	5.15521
5.17	5.14008
5.18	5.14929
5.19	5.12824
5.2	5.12331
5.21	5.12561
5.22	5.11969
5.23	5.1335
5.24	5.121
5.25	5.12429
5.26	5.10521
5.27	5.09271
5.28	5.09633
5.29	5.096
5.3	5.09041
5.31	5.09205
5.32	5.10291
5.33	5.07626
5.34	5.0812
5.35	5.08646
5.36	5.07922
5.37	5.07297
5.38	5.06442
5.39	5.05028
5.4	5.06278
5.41	5.071
5.42	5.07561
5.43	5.05817
5.44	5.06311
5.45	5.05028
5.46	5.05258
5.47	5.05357
5.48	5.04666
5.49	5.02692
5.5	5.02166
5.51	5.02955
5.52	5.03811
5.53	5.04139
5.54	5.02889
5.55	5.02626
5.56	5.02824
5.57	5.01738
5.58	5.01047
5.59	5.02429
5.6	5.01014
5.61	5.01113
5.62	5.01047
5.63	5.01705
5.64	4.99501
5.65	4.99731
5.66	4.99041
5.67	4.98416
5.68	4.98514
5.69	4.99205
5.7	4.98646
5.71	4.96672
5.72	4.9881
5.73	4.96606
5.74	4.95225
5.75	4.95554
5.76	4.95948
5.77	4.9608
5.78	4.97659
5.79	4.95389
5.8	4.95389
5.81	4.94731
5.82	4.94205
5.83	4.95192
5.84	4.94369
5.85	4.946
5.86	4.9381
5.87	4.94369
5.88	4.93251
5.89	4.9335
5.9	4.91573
5.91	4.92856
5.92	4.92297
5.93	4.92034
5.94	4.91639
5.95	4.90915
5.96	4.91475
5.97	4.91442
5.98	4.90915
5.99	4.9006
6	4.90948
6.01	4.89632
6.02	4.89632
6.03	4.89402
6.04	4.88514
6.05	4.89073
6.06	4.88415
6.07	4.88613
6.08	4.89205
6.09	4.8858
6.1	4.87461
6.11	4.87264
6.12	4.87396
6.13	4.88119
6.14	4.86968
6.15	4.86672
6.16	4.84369
6.17	4.85784
6.18	4.86211
6.19	4.84665
6.2	4.85948
6.21	4.85192
6.22	4.83777
6.23	4.84928
6.24	4.8381
6.25	4.83843
6.26	4.84238
6.27	4.83843
6.28	4.82856
6.29	4.8302
6.3	4.82659
6.31	4.82231
6.32	4.82757
6.33	4.8256
6.34	4.8279
6.35	4.81803
6.36	4.80718
6.37	4.82001
6.38	4.81211
6.39	4.80685
6.4	4.79632
6.41	4.80422
6.42	4.80619
6.43	4.79665
6.44	4.79336
6.45	4.7904
6.46	4.79237
6.47	4.78876
6.48	4.78382
6.49	4.77954
6.5	4.77099
6.51	4.7677
6.52	4.77658
6.53	4.78843
6.54	4.77527
6.55	4.77132
6.56	4.76935
6.57	4.7631
6.58	4.76606
6.59	4.76408
6.6	4.75356
6.61	4.7779
6.62	4.77329
6.63	4.74237
6.64	4.77264
6.65	4.74402
6.66	4.75619
6.67	4.74402
6.68	4.74994
6.69	4.73645
6.7	4.74435
6.71	4.73941
6.72	4.74204
6.73	4.72527
6.74	4.73283
6.75	4.7325
6.76	4.73217
6.77	4.7256
6.78	4.72592
6.79	4.72691
6.8	4.72296
6.81	4.70684
6.82	4.71408
6.83	4.72066
6.84	4.69961
6.85	4.70224
6.86	4.71638
6.87	4.70454
6.88	4.70323
6.89	4.69796
6.9	4.70915
6.91	4.70257
6.92	4.68612
6.93	4.69796
6.94	4.69895
6.95	4.6904
6.96	4.68579
6.97	4.68053
6.98	4.6848
6.99	4.6779
7	4.68678
7.01	4.68283
7.02	4.67757
7.03	4.6598
7.04	4.65619
7.05	4.67362
7.06	4.66737
7.07	4.67066
7.08	4.66704
7.09	4.65224
7.1	4.65717
7.11	4.66605
7.12	4.66408
7.13	4.66967
7.14	4.66605
7.15	4.64763
7.16	4.64862
7.17	4.65586
7.18	4.64533
7.19	4.64895
7.2	4.65092
7.21	4.64303
7.22	4.64796
7.23	4.64204
7.24	4.63809
7.25	4.63415
7.26	4.62625
7.27	4.64697
7.28	4.63283
7.29	4.6223
7.3	4.62428
7.31	4.62625
7.32	4.63349
7.33	4.6223
7.34	4.61539
7.35	4.63118
7.36	4.62033
7.37	4.60322
7.38	4.61638
7.39	4.6052
7.4	4.59237
7.41	4.59928
7.42	4.58908
7.43	4.59796
7.44	4.58809
7.45	4.59895
7.46	4.58743
7.47	4.58743
7.48	4.57987
7.49	4.59171
7.5	4.5802
7.51	4.58118
7.52	4.58743
7.53	4.58151
7.54	4.58053
7.55	4.57822
7.56	4.56605
7.57	4.56638
7.58	4.5723
7.59	4.57691
7.6	4.57164
7.61	4.5598
7.62	4.56638
7.63	4.5598
7.64	4.55684
7.65	4.55585
7.66	4.54401
7.67	4.545
7.68	4.53875
7.69	4.55783
7.7	4.53809
7.71	4.55191
7.72	4.54664
7.73	4.545
7.74	4.5427
7.75	4.54368
7.76	4.52723
7.77	4.53546
7.78	4.53283
7.79	4.52526
7.8	4.51802
7.81	4.52263
7.82	4.52098
7.83	4.52362
7.84	4.53118
7.85	4.53151
7.86	4.5223
7.87	4.52822
7.88	4.51572
7.89	4.51835
7.9	4.51243
7.91	4.51572
7.92	4.53316
7.93	4.53612
7.94	4.51671
7.95	4.51473
7.96	4.52329
7.97	4.50815
7.98	4.51835
7.99	4.52296
8	4.52197
8.01	4.5075
8.02	4.51967
8.03	4.5144
8.04	4.50947
8.05	4.50881
8.06	4.5075
8.07	4.51638
8.08	4.49467
8.09	4.48644
8.1	4.50454
8.11	4.49335
8.12	4.51506
8.13	4.50092
8.14	4.49829
8.15	4.48282
8.16	4.48875
8.17	4.48644
8.18	4.48381
8.19	4.49072
8.2	4.48611
8.21	4.46703
8.22	4.48546
8.23	4.47921
8.24	4.46703
8.25	4.46934
8.26	4.47098
8.27	4.47296
8.28	4.46703
8.29	4.46967
8.3	4.4644
8.31	4.47065
8.32	4.46506
8.33	4.45552
8.34	4.46013
8.35	4.4598
8.36	4.45914
8.37	4.45717
8.38	4.44927
8.39	4.45124
8.4	4.44993
8.41	4.45684
8.42	4.43809
8.43	4.45519
8.44	4.44993
8.45	4.42723
8.46	4.44105
8.47	4.43776
8.48	4.42723
8.49	4.43447
8.5	4.45059
8.51	4.42756
8.52	4.42986
8.53	4.43611
8.54	4.41835
8.55	4.41901
8.56	4.42164
8.57	4.41868
8.58	4.43217
8.59	4.42164
8.6	4.41901
8.61	4.41473
8.62	4.41144
8.63	4.4292
8.64	4.40881
8.65	4.41374
8.66	4.41572
8.67	4.40322
8.68	4.39795
8.69	4.40749
8.7	4.40651
8.71	4.41013
8.72	4.41078
8.73	4.39598
8.74	4.38118
8.75	4.3996
8.76	4.41605
8.77	4.4019
8.78	4.39697
8.79	4.3894
8.8	4.38677
8.81	4.39466
8.82	4.39269
8.83	4.3917
8.84	4.37262
8.85	4.38743
8.86	4.39072
8.87	4.3996
8.88	4.37657
8.89	4.37591
8.9	4.37493
8.91	4.37427
8.92	4.37526
8.93	4.37789
8.94	4.39072
8.95	4.37526
8.96	4.37197
8.97	4.37131
8.98	4.38249
8.99	4.37591
9	4.38216
9.01	4.37657
9.02	4.38545
9.03	4.37295
9.04	4.36637
9.05	4.37591
9.06	4.36999
9.07	4.36835
9.08	4.35618
9.09	4.3621
9.1	4.37394
9.11	4.3621
9.12	4.35947
9.13	4.35519
9.14	4.36144
9.15	4.36144
9.16	4.36473
9.17	4.35815
9.18	4.34433
9.19	4.35124
9.2	4.35486
9.21	4.34499
9.22	4.35387
9.23	4.3496
9.24	4.35058
9.25	4.34433
9.26	4.34433
9.27	4.34631
9.28	4.34729
9.29	4.3496
9.3	4.34006
9.31	4.3394
9.32	4.32887
9.33	4.34697
9.34	4.33973
9.35	4.33512
9.36	4.32361
9.37	4.33808
9.38	4.33282
9.39	4.32262
9.4	4.32262
9.41	4.34565
9.42	4.33183
9.43	4.32328
9.44	4.32394
9.45	4.31933
9.46	4.33282
9.47	4.32164
9.48	4.31539
9.49	4.3121
9.5	4.31341
9.51	4.31604
9.52	4.30782
9.53	4.31571
9.54	4.32361
9.55	4.32887
9.56	4.32723
9.57	4.31604
9.58	4.31999
9.59	4.30815
9.6	4.31835
9.61	4.3167
9.62	4.30716
9.63	4.31111
9.64	4.29729
9.65	4.31571
9.66	4.3019
9.67	4.30124
9.68	4.31571
9.69	4.3121
9.7	4.28808
9.71	4.29992
9.72	4.29729
9.73	4.28315
9.74	4.28479
9.75	4.29762
9.76	4.30223
9.77	4.29367
9.78	4.30387
9.79	4.28709
9.8	4.28315
9.81	4.29466
9.82	4.28611
9.83	4.28479
9.84	4.27723
9.85	4.28019
9.86	4.2792
9.87	4.29071
9.88	4.29367
9.89	4.26703
9.9	4.29236
9.91	4.26802
9.92	4.2713
9.93	4.27986
9.94	4.27887
9.95	4.2815
9.96	4.2769
9.97	4.26045
9.98	4.26999
9.99	4.2792
10	4.27525
10.01	4.26308
10.02	4.27295
10.03	4.27788
10.04	4.27525
10.05	4.27361
10.06	4.2713
10.07	4.27394
10.08	4.25486
10.09	4.269
10.1	4.26571
10.11	4.26111
10.12	4.25058
10.13	4.25683
10.14	4.2713
10.15	4.27295
10.16	4.26703
10.17	4.26111
10.18	4.26242
10.19	4.26341
10.2	4.24959
10.21	4.2542
10.22	4.25946
10.23	4.25848
10.24	4.25255
10.25	4.24565
10.26	4.24992
10.27	4.26505
10.28	4.25091
10.29	4.24663
10.3	4.2417
10.31	4.24663
10.32	4.24894
10.33	4.24532
10.34	4.24005
10.35	4.24433
10.36	4.25288
10.37	4.24499
10.38	4.25683
10.39	4.24334
10.4	4.23775
10.41	4.24499
10.42	4.24729
10.43	4.2338
10.44	4.24301
10.45	4.23216
10.46	4.22591
10.47	4.24236
10.48	4.22986
10.49	4.23709
10.5	4.23512
10.51	4.23479
10.52	4.23578
10.53	4.23611
10.54	4.22097
10.55	4.22196
10.56	4.22986
10.57	4.23249
10.58	4.22229
10.59	4.21571
10.6	4.22986
10.61	4.22065
10.62	4.22525
10.63	4.22328
10.64	4.22821
10.65	4.21538
10.66	4.21275
10.67	4.22262
10.68	4.23644
10.69	4.21933
10.7	4.21538
10.71	4.20486
10.72	4.23051
10.73	4.21407
10.74	4.21176
10.75	4.22163
10.76	4.20486
10.77	4.20782
10.78	4.22032
10.79	4.2088
10.8	4.19696
10.81	4.20815
10.82	4.2065
10.83	4.21966
10.84	4.21867
10.85	4.21374
10.86	4.22459
10.87	4.22361
10.88	4.21768
10.89	4.22361
10.9	4.20058
10.91	4.20683
10.92	4.21472
10.93	4.22361
10.94	4.20091
10.95	4.20387
10.96	4.19992
10.97	4.1838
10.98	4.2065
10.99	4.20913
11	4.20453
11.01	4.20453
11.02	4.19992
11.03	4.19301
11.04	4.2167
11.05	4.20683
11.06	4.19268
11.07	4.20157
11.08	4.19071
11.09	4.19729
11.1	4.19861
11.11	4.19663
11.12	4.19203
11.13	4.1963
11.14	4.17262
11.15	4.17426
11.16	4.18347
11.17	4.19236
11.18	4.1917
11.19	4.18775
11.2	4.19861
11.21	4.18643
11.22	4.1838
11.23	4.17985
11.24	4.18907
11.25	4.194
11.26	4.18874
11.27	4.17459
11.28	4.17163
11.29	4.17755
11.3	4.18347
11.31	4.1792
11.32	4.17689
11.33	4.19005
11.34	4.17953
11.35	4.17689
11.36	4.17558
11.37	4.17755
11.38	4.18841
11.39	4.19005
11.4	4.17788
11.41	4.16768
11.42	4.1861
11.43	4.18907
11.44	4.18183
11.45	4.17064
11.46	4.16933
11.47	4.17722
11.48	4.17031
11.49	4.17196
11.5	4.17163
11.51	4.16801
11.52	4.17657
11.53	4.18479
11.54	4.18249
11.55	4.17064
11.56	4.16571
11.57	4.15847
11.58	4.16703
11.59	4.17558
11.6	4.17031
11.61	4.16341
11.62	4.16801
11.63	4.16505
11.64	4.16538
11.65	4.16505
11.66	4.15518
11.67	4.1588
11.68	4.15847
11.69	4.16078
11.7	4.15518
11.71	4.14762
11.72	4.16045
11.73	4.16834
11.74	4.15485
11.75	4.17064
11.76	4.16275
11.77	4.15913
11.78	4.16078
11.79	4.15288
11.8	4.15255
11.81	4.15321
11.82	4.15255
11.83	4.15091
11.84	4.15288
11.85	4.15288
11.86	4.15617
11.87	4.15288
11.88	4.1611
11.89	4.15749
11.9	4.15716
11.91	4.14893
11.92	4.14729
11.93	4.15979
11.94	4.14795
11.95	4.14663
11.96	4.15025
11.97	4.14531
11.98	4.1463
11.99	4.14795
12	4.15025
12.01	4.13939
12.02	4.14564
12.03	4.14202
12.04	4.14367
12.05	4.14433
12.06	4.14992
12.07	4.14729
12.08	4.14499
12.09	4.13512
12.1	4.14367
12.11	4.14663
12.12	4.15518
12.13	4.13972
12.14	4.1292
12.15	4.15189
12.16	4.15156
12.17	4.1361
12.18	4.14202
12.19	4.14301
12.2	4.12952
12.21	4.1417
12.22	4.14827
12.23	4.14729
12.24	4.14959
12.25	4.1417
12.26	4.13939
12.27	4.12492
12.28	4.14137
12.29	4.13939
12.3	4.13906
12.31	4.13643
12.32	4.1486
12.33	4.13808
12.34	4.12722
12.35	4.1236
12.36	4.14433
12.37	4.12887
12.38	4.12952
12.39	4.13742
12.4	4.12525
12.41	4.13742
12.42	4.14334
12.43	4.13676
12.44	4.1361
12.45	4.15255
12.46	4.13413
12.47	4.12591
12.48	4.13281
12.49	4.1361
12.5	4.13018
12.51	4.13347
12.52	4.13479
12.53	4.119
12.54	4.12952
12.55	4.12788
12.56	4.12525
12.57	4.12229
12.58	4.1338
12.59	4.13446
12.6	4.11538
12.61	4.11834
12.62	4.12295
12.63	4.13216
12.64	4.12262
12.65	4.1292
12.66	4.12689
12.67	4.12887
12.68	4.12327
12.69	4.13775
12.7	4.12656
12.71	4.11044
12.72	4.11176
12.73	4.12163
12.74	4.11669
12.75	4.10847
12.76	4.11702
12.77	4.10683
12.78	4.10452
12.79	4.12262
12.8	4.10485
12.81	4.10748
12.82	4.11341
12.83	4.11242
12.84	4.12656
12.85	4.12229
12.86	4.10979
12.87	4.10321
12.88	4.10485
12.89	4.11077
12.9	4.10584
12.91	4.11176
12.92	4.11242
12.93	4.11373
12.94	4.10189
12.95	4.10156
12.96	4.11373
12.97	4.11867
12.98	4.10419
12.99	4.10551
13	4.10387
13.01	4.09202
13.02	4.11637
13.03	4.10452
13.04	4.11505
13.05	4.10617
13.06	4.0986
13.07	4.10781
13.08	4.1088
13.09	4.10913
13.1	4.11143
13.11	4.11242
13.12	4.10419
13.13	4.10058
13.14	4.10617
13.15	4.10781
13.16	4.09926
13.17	4.09992
13.18	4.10255
13.19	4.1009
13.2	4.0884
13.21	4.09202
13.22	4.09465
13.23	4.10419
13.24	4.11012
13.25	4.10123
13.26	4.09992
13.27	4.09959
13.28	4.08972
13.29	4.09202
13.3	4.10387
13.31	4.09729
13.32	4.1009
13.33	4.09433
13.34	4.10123
13.35	4.09104
13.36	4.08873
13.37	4.10156
13.38	4.10321
13.39	4.08347
13.4	4.09071
13.41	4.09992
13.42	4.08873
13.43	4.09663
13.44	4.10321
13.45	4.09301
13.46	4.08906
13.47	4.08643
13.48	4.1009
13.49	4.10321
13.5	4.09992
13.51	4.09301
13.52	4.09137
13.53	4.08972
13.54	4.09926
13.55	4.09334
13.56	4.08972
13.57	4.09498
13.58	4.09038
13.59	4.09498
13.6	4.07163
13.61	4.07854
13.62	4.09729
13.63	4.08939
13.64	4.08676
13.65	4.07985
13.66	4.09531
13.67	4.08775
13.68	4.09235
13.69	4.09301
13.7	4.08183
13.71	4.07755
13.72	4.08808
13.73	4.09005
13.74	4.0838
13.75	4.08281
13.76	4.09202
13.77	4.10156
13.78	4.09104
13.79	4.08709
13.8	4.08215
13.81	4.09005
13.82	4.08183
13.83	4.07097
13.84	4.07821
13.85	4.07886
13.86	4.07919
13.87	4.08511
13.88	4.08215
13.89	4.08248
13.9	4.09696
13.91	4.09137
13.92	4.08676
13.93	4.08117
13.94	4.0838
13.95	4.06702
13.96	4.07261
13.97	4.06801
13.98	4.07656
13.99	4.07492
14	4.06932
14.01	4.06077
14.02	4.06998
14.03	4.07788
14.04	4.07163
14.05	4.069
14.06	4.08018
14.07	4.07097
14.08	4.08544
14.09	4.07886
14.1	4.07064
14.11	4.07656
14.12	4.07919
14.13	4.07919
14.14	4.08117
14.15	4.0588
14.16	4.07788
14.17	4.0634
14.18	4.06834
14.19	4.07689
14.2	4.06242
14.21	4.07525
14.22	4.07294
14.23	4.07327
14.24	4.07558
14.25	4.06965
14.26	4.07097
14.27	4.0634
14.28	4.06669
14.29	4.08183
14.3	4.07854
14.31	4.07327
14.32	4.06965
14.33	4.06307
14.34	4.06275
14.35	4.06768
14.36	4.06373
14.37	4.06768
14.38	4.06867
14.39	4.06538
14.4	4.06275
14.41	4.05518
14.42	4.05979
14.43	4.0565
14.44	4.06242
14.45	4.0713
14.46	4.06669
14.47	4.05386
14.48	4.06176
14.49	4.05946
14.5	4.06571
14.51	4.05748
14.52	4.05485
14.53	4.06669
14.54	4.0486
14.55	4.05814
14.56	4.06571
14.57	4.06077
14.58	4.05847
14.59	4.06275
14.6	4.07261
14.61	4.06932
14.62	4.0565
14.63	4.0634
14.64	4.05353
14.65	4.0611
14.66	4.06044
14.67	4.05321
14.68	4.05255
14.69	4.05156
14.7	4.05781
14.71	4.05979
14.72	4.06867
14.73	4.0486
14.74	4.05913
14.75	4.05715
14.76	4.06143
14.77	4.06209
14.78	4.06176
14.79	4.05748
14.8	4.06538
14.81	4.06307
14.82	4.05189
14.83	4.04498
14.84	4.05156
14.85	4.05748
14.86	4.06472
14.87	4.07426
14.88	4.0611
14.89	4.06307
14.9	4.05485
14.91	4.05715
14.92	4.04597
14.93	4.05584
14.94	4.04926
14.95	4.05452
14.96	4.069
14.97	4.06373
14.98	4.04564
14.99	4.05123
15	4.0361
15.01	4.05123
15.02	4.06011
15.03	4.03873
15.04	4.03511
15.05	4.04893
15.06	4.05321
15.07	4.04696
15.08	4.04893
15.09	4.04959
15.1	4.04334
15.11	4.05057
15.12	4.04564
15.13	4.04202
15.14	4.04992
15.15	4.04202
15.16	4.04761
15.17	4.05353
15.18	4.05946
15.19	4.05419
15.2	4.04926
15.21	4.0565
15.22	4.04827
15.23	4.04827
15.24	4.03807
15.25	4.05452
15.26	4.05551
15.27	4.04827
15.28	4.04169
15.29	4.04696
15.3	4.04893
15.31	4.04926
15.32	4.05156
15.33	4.04531
15.34	4.04005
15.35	4.05617
15.36	4.0463
15.37	4.05419
15.38	4.05748
15.39	4.05979
15.4	4.05025
15.41	4.03939
15.42	4.05123
15.43	4.04728
15.44	4.03676
15.45	4.03972
15.46	4.05748
15.47	4.0463
15.48	4.03742
15.49	4.04531
15.5	4.03149
15.51	4.04268
15.52	4.04103
15.53	4.04696
15.54	4.04038
15.55	4.0384
15.56	4.04367
15.57	4.04992
15.58	4.03577
15.59	4.04367
15.6	4.05748
15.61	4.05025
15.62	4.0384
15.63	4.03906
15.64	4.04136
15.65	4.04136
15.66	4.0361
15.67	4.03149
15.68	4.05057
15.69	4.04696
15.7	4.03478
15.71	4.03117
15.72	4.03972
15.73	4.04136
15.74	4.02195
15.75	4.03972
15.76	4.04959
15.77	4.0463
15.78	4.04465
15.79	4.03577
15.8	4.0384
15.81	4.02656
15.82	4.03906
15.83	4.04465
15.84	4.03676
15.85	4.02656
15.86	4.03215
15.87	4.0361
15.88	4.0259
15.89	4.02919
15.9	4.03347
15.91	4.03807
15.92	4.0259
15.93	4.03117
15.94	4.03281
15.95	4.0338
15.96	4.02327
15.97	4.0338
15.98	4.03643
15.99	4.02853
16	4.0338
16.01	4.03149
16.02	4.03511
16.03	4.03314
16.04	4.03051
16.05	4.03149
16.06	4.03182
16.07	4.0463
16.08	4.04005
16.09	4.0361
16.1	4.02821
16.11	4.03446
16.12	4.02656
16.13	4.02919
16.14	4.01307
16.15	4.02064
16.16	4.02195
16.17	4.03182
16.18	4.03807
16.19	4.03084
16.2	4.03478
16.21	4.03018
16.22	4.02952
16.23	4.01998
16.24	4.02097
16.25	4.02097
16.26	4.01867
16.27	4.02722
16.28	4.0361
16.29	4.03314
16.3	4.0384
16.31	4.02195
16.32	4.02821
16.33	4.01472
16.34	4.02623
16.35	4.03281
16.36	4.03215
16.37	4.03544
16.38	4.02426
16.39	4.01472
16.4	4.03248
16.41	4.03117
16.42	4.02031
16.43	4.02623
16.44	4.01636
16.45	4.01077
16.46	4.01044
16.47	4.02821
16.48	4.02163
16.49	4.02261
16.5	4.02985
16.51	4.01801
16.52	4.02327
16.53	4.03182
16.54	4.02426
16.55	4.03807
16.56	4.02656
16.57	4.02492
16.58	4.02919
16.59	4.01274
16.6	4.02853
16.61	4.02261
16.62	4.02557
16.63	4.01176
16.64	4.01373
16.65	4.01406
16.66	4.0236
16.67	4.02788
16.68	4.02393
16.69	4.01932
16.7	4.02163
16.71	4.03873
16.72	4.02261
16.73	4.02393
16.74	4.02064
16.75	4.01965
16.76	4.01373
16.77	4.01768
16.78	4.02952
16.79	4.0134
16.8	4.01669
16.81	4.02064
16.82	4.03314
16.83	4.00419
16.84	4.01998
16.85	4.02788
16.86	4.03577
16.87	4.01899
16.88	4.00978
16.89	4.0111
16.9	4.01472
16.91	4.02689
16.92	4.0157
16.93	4.01932
16.94	4.01965
16.95	4.00616
16.96	4.01274
16.97	4.03248
16.98	4.02163
16.99	4.01209
17	4.01439
17.01	4.01603
17.02	4.00781
17.03	4.01669
17.04	4.01274
17.05	4.01899
17.06	4.01077
17.07	4.01603
17.08	4.01603
17.09	4.01768
17.1	4.02492
17.11	4.02031
17.12	4.01242
17.13	4.01373
17.14	4.01834
17.15	4.00682
17.16	4.02656
17.17	4.02097
17.18	4.01636
17.19	4.02294
17.2	4.0213
17.21	4.01505
17.22	4.01406
17.23	4.01209
17.24	4.01406
17.25	4.00978
17.26	4.0157
17.27	4.03051
17.28	4.02064
17.29	4.02228
17.3	4.01636
17.31	4.02722
17.32	4.03511
17.33	4.01867
17.34	4.0088
17.35	3.9986
17.36	4.02228
17.37	4.02261
17.38	4.01472
17.39	4.0236
17.4	4.01867
17.41	4.01505
17.42	4.01801
17.43	4.01044
17.44	4.01242
17.45	4.01669
17.46	4.02327
17.47	4.01965
17.48	4.00485
17.49	4.00682
17.5	4.01702
17.51	3.99465
17.52	4.00682
17.53	4.02064
17.54	4.02722
17.55	4.02393
17.56	4.01998
17.57	4.00616
17.58	3.99926
17.59	4.01209
17.6	4.00255
17.61	4.00288
17.62	4.01044
17.63	4.00945
17.64	4.01669
17.65	4.01768
17.66	4.0157
17.67	4.01274
17.68	4.01242
17.69	4.01044
17.7	4.01242
17.71	4.00551
17.72	4.01307
17.73	4.0134
17.74	4.01932
17.75	4.0157
17.76	4.00748
17.77	4.01143
17.78	4.01636
17.79	4.01209
17.8	4.01932
17.81	4.00748
17.82	4.01439
17.83	4.01176
17.84	4.00255
17.85	4.00518
17.86	4.01209
17.87	4.01998
17.88	4.01274
17.89	4.00386
17.9	3.99399
17.91	4.00353
17.92	4.01176
17.93	4.01044
17.94	4.01505
17.95	4.02294
17.96	4.01044
17.97	4.00024
17.98	4.00057
17.99	4.00485
18	3.99597
18.01	4.00057
18.02	4.01242
18.03	4.00419
18.04	4.00978
18.05	4.01373
18.06	4.00945
18.07	4.00485
18.08	4.00781
18.09	3.99695
18.1	3.99794
18.11	4.00123
18.12	4.00551
18.13	3.99366
18.14	3.99926
18.15	4.01209
18.16	4.01899
18.17	3.9963
18.18	3.99334
18.19	4.01636
18.2	3.98709
18.21	3.98544
18.22	4.00222
18.23	4.01373
18.24	4.00715
18.25	4.00222
18.26	3.99926
18.27	4.00057
18.28	4.00485
18.29	3.98741
18.3	3.99334
18.31	4.00024
18.32	3.99663
18.33	3.9861
18.34	3.99959
18.35	4.00616
18.36	3.99597
18.37	3.99728
18.38	3.98709
18.39	4.01242
18.4	4.00485
18.41	4.01307
18.42	4.0111
18.43	4.00518
18.44	3.99991
18.45	4.00386
18.46	3.99202
18.47	4.00024
18.48	3.99202
18.49	3.98511
18.5	4.00189
18.51	3.99235
18.52	4.00024
18.53	4.00551
18.54	4.01077
18.55	4.00452
18.56	3.99695
18.57	3.99597
18.58	3.99991
18.59	4.00584
18.6	3.99827
18.61	3.99268
18.62	3.98906
18.63	4.0032
18.64	3.99728
18.65	3.9986
18.66	3.99531
18.67	4.00551
18.68	3.99761
18.69	3.99597
18.7	3.99268
18.71	3.98906
18.72	3.9907
18.73	3.9986
18.74	3.98972
18.75	4.00255
18.76	4.0032
18.77	4.00945
18.78	4.00814
18.79	4.00978
18.8	4.00518
18.81	3.99301
18.82	3.9986
18.83	3.99202
18.84	3.99728
18.85	4.00814
18.86	3.99531
18.87	3.99531
18.88	3.99366
18.89	3.99169
18.9	3.98774
18.91	3.9907
18.92	3.98873
18.93	3.99827
18.94	3.99761
18.95	3.98314
18.96	3.99926
18.97	3.9884
18.98	4.00123
18.99	4.00024
19	4.0009
19.01	3.99695
19.02	3.99399
19.03	4.01044
19.04	4.01176
19.05	4.00057
19.06	3.98577
19.07	3.98807
19.08	3.98215
19.09	3.98807
19.1	3.98478
19.11	3.99202
19.12	3.99366
19.13	3.98873
19.14	4.00288
19.15	4.00715
19.16	3.9907
19.17	3.98149
19.18	3.98544
19.19	3.98741
19.2	3.97919
19.21	3.98478
19.22	3.99498
19.23	4.00255
19.24	3.99926
19.25	3.98873
19.26	4.0009
19.27	4.0009
19.28	4.00255
19.29	3.98939
19.3	3.99005
19.31	3.98116
19.32	3.99761
19.33	3.98939
19.34	3.97919
19.35	3.9861
19.36	3.99202
19.37	3.9907
19.38	3.99268
19.39	3.98906
19.4	3.99663
19.41	3.9838
19.42	3.9963
19.43	3.99893
19.44	4.00715
19.45	4.00452
19.46	3.99761
19.47	3.99695
19.48	3.99926
19.49	3.99695
19.5	3.98478
19.51	3.9838
19.52	3.98741
19.53	3.99761
19.54	3.99432
19.55	3.98709
19.56	3.98248
19.57	3.98018
19.58	3.99728
19.59	4.00123
19.6	3.9838
19.61	3.99202
19.62	3.97722
19.63	3.98116
19.64	3.98577
19.65	3.99926
19.66	3.99959
19.67	3.99169
19.68	3.98774
19.69	3.9884
19.7	3.98347
19.71	3.98774
19.72	3.98182
19.73	3.97886
19.74	3.97886
19.75	3.97722
19.76	3.9838
19.77	3.99136
19.78	3.99695
19.79	3.9861
19.8	3.98709
19.81	3.9986
19.82	3.99663
19.83	3.98445
19.84	3.99366
19.85	3.98281
19.86	3.97886
19.87	3.99103
19.88	3.98807
19.89	3.98478
19.9	3.98347
19.91	3.98741
19.92	3.97722
19.93	3.99334
19.94	3.98939
19.95	3.96406
19.96	3.97919
19.97	3.98149
19.98	3.98774
19.99	3.9759
20	3.97787
20.01	3.98182
20.02	3.99334
20.03	3.98774
20.04	3.99728
20.05	3.98149
20.06	3.98511
20.07	3.98116
20.08	3.98577
20.09	3.99235
20.1	3.98873
20.11	3.97162
20.12	3.98084
20.13	3.9782
20.14	3.98709
20.15	3.98051
20.16	3.98314
20.17	3.98051
20.18	3.97426
20.19	3.97853
20.2	3.98412
20.21	3.97952
20.22	3.98018
20.23	3.97393
20.24	3.98741
20.25	3.99301
20.26	3.98709
20.27	3.99136
20.28	3.97557
20.29	3.98281
20.3	3.98643
20.31	3.97755
20.32	3.98676
20.33	3.98709
20.34	3.97722
20.35	3.98445
20.36	3.98018
20.37	3.98511
20.38	3.98018
20.39	3.9907
20.4	3.98511
20.41	3.97952
20.42	3.99399
20.43	3.98643
20.44	3.98412
20.45	3.97524
20.46	3.98215
20.47	3.99597
20.48	3.99103
20.49	3.97689
20.5	3.99136
20.51	3.99531
20.52	3.99136
20.53	3.99794
20.54	3.99334
20.55	3.97853
20.56	3.98939
20.57	3.98676
20.58	3.99498
20.59	3.98741
20.6	3.98116
20.61	3.97162
20.62	3.97919
20.63	3.98511
20.64	3.99005
20.65	3.99136
20.66	3.97722
20.67	3.98445
20.68	3.9736
20.69	3.98445
20.7	3.98906
20.71	3.97557
20.72	3.98281
20.73	3.97162
20.74	3.97459
20.75	3.98018
20.76	3.95748
20.77	3.97393
20.78	3.98084
20.79	3.9838
20.8	3.98939
20.81	3.97459
20.82	3.98084
20.83	3.98248
20.84	3.98445
20.85	3.98314
20.86	3.97623
20.87	3.98873
20.88	3.99202
20.89	3.99169
20.9	3.9861
20.91	3.98741
20.92	3.97787
20.93	3.98215
20.94	3.98347
20.95	3.98741
20.96	3.97853
20.97	3.9861
20.98	3.97787
20.99	3.98873
21	3.97919
21.01	3.96735
21.02	3.96406
21.03	3.96899
21.04	3.98116
21.05	3.97491
21.06	3.97689
21.07	3.98807
21.08	3.98116
21.09	3.97393
21.1	3.96307
21.11	3.96965
21.12	3.97689
21.13	3.97787
21.14	3.9861
21.15	3.99005
21.16	3.97755
21.17	3.97294
21.18	3.98116
21.19	3.98478
21.2	3.97886
21.21	3.9861
21.22	3.97623
21.23	3.98478
21.24	3.97985
21.25	3.98577
21.26	3.98182
21.27	3.97491
21.28	3.97919
21.29	3.98906
21.3	3.95485
21.31	3.97755
21.32	3.9759
21.33	3.9759
21.34	3.97722
21.35	3.97261
21.36	3.9713
21.37	3.96208
21.38	3.98248
21.39	3.98412
21.4	3.97656
21.41	3.97162
21.42	3.97228
21.43	3.97853
21.44	3.98939
21.45	3.97985
21.46	3.98215
21.47	3.98084
21.48	3.98544
21.49	3.96768
21.5	3.96965
21.51	3.98149
21.52	3.99038
21.53	3.97031
21.54	3.97656
21.55	3.96899
21.56	3.98116
21.57	3.97097
21.58	3.96801
21.59	3.96899
21.6	3.97919
21.61	3.97886
21.62	3.97294
21.63	3.98051
21.64	3.98314
21.65	3.97623
21.66	3.98018
21.67	3.97985
21.68	3.9736
21.69	3.99334
21.7	3.97195
21.71	3.97195
21.72	3.96833
21.73	3.97853
21.74	3.97952
21.75	3.95945
21.76	3.97459
21.77	3.96702
21.78	3.95682
21.79	3.96866
21.8	3.97294
21.81	3.97195
21.82	3.96176
21.83	3.96768
21.84	3.96932
21.85	3.96143
21.86	3.96866
21.87	3.97228
21.88	3.95847
21.89	3.96768
21.9	3.97952
21.91	3.96768
21.92	3.97261
21.93	3.97656
21.94	3.96702
21.95	3.97755
21.96	3.96472
21.97	3.9736
21.98	3.96998
21.99	3.96965
22	3.97294
22.01	3.96965
22.02	3.97064
22.03	3.97689
22.04	3.96603
22.05	3.97228
22.06	3.96899
22.07	3.96932
22.08	3.97952
22.09	3.97459
22.1	3.96801
22.11	3.96801
22.12	3.96241
22.13	3.96439
22.14	3.96603
22.15	3.95814
22.16	3.97261
22.17	3.96011
22.18	3.96373
22.19	3.97656
22.2	3.97755
22.21	3.97656
22.22	3.97722
22.23	3.98084
22.24	3.97459
22.25	3.97327
22.26	3.96899
22.27	3.97228
22.28	3.9657
22.29	3.96406
22.3	3.96833
22.31	3.96899
22.32	3.96373
22.33	3.96801
22.34	3.97162
22.35	3.97228
22.36	3.97689
22.37	3.97261
22.38	3.97228
22.39	3.9611
22.4	3.95847
22.41	3.97294
22.42	3.96472
22.43	3.97393
22.44	3.96406
22.45	3.96373
22.46	3.96208
22.47	3.95551
22.48	3.96011
22.49	3.97426
22.5	3.96735
22.51	3.9782
22.52	3.98182
22.53	3.95847
22.54	3.95583
22.55	3.95649
22.56	3.97228
22.57	3.96636
22.58	3.96801
22.59	3.97064
22.6	3.96143
22.61	3.95189
22.62	3.9759
22.63	3.97459
22.64	3.97327
22.65	3.97327
22.66	3.97261
22.67	3.96208
22.68	3.97195
22.69	3.96801
22.7	3.9736
22.71	3.96307
22.72	3.96274
22.73	3.96965
22.74	3.96274
22.75	3.96965
22.76	3.97097
22.77	3.96077
22.78	3.97195
22.79	3.95748
22.8	3.96833
22.81	3.95649
22.82	3.95978
22.83	3.95254
22.84	3.96406
22.85	3.9611
22.86	3.96866
22.87	3.96472
22.88	3.96439
22.89	3.95847
22.9	3.97787
22.91	3.98116
22.92	3.95419
22.93	3.95254
22.94	3.9509
22.95	3.95847
22.96	3.96899
22.97	3.97097
22.98	3.96176
22.99	3.95616
23	3.96307
23.01	3.96241
23.02	3.94695
23.03	3.96866
23.04	3.96208
23.05	3.96274
23.06	3.95616
23.07	3.97426
23.08	3.96274
23.09	3.96176
23.1	3.96932
23.11	3.97228
23.12	3.96011
23.13	3.97491
23.14	3.97195
23.15	3.95814
23.16	3.97031
23.17	3.94827
23.18	3.96439
23.19	3.96636
23.2	3.96307
23.21	3.96965
23.22	3.96373
23.23	3.96143
23.24	3.96274
23.25	3.9611
23.26	3.96768
23.27	3.96965
23.28	3.96603
23.29	3.97261
23.3	3.96241
23.31	3.94728
23.32	3.96505
23.33	3.95452
23.34	3.95485
23.35	3.95616
23.36	3.96439
23.37	3.96208
23.38	3.96866
23.39	3.95452
23.4	3.95287
23.41	3.96011
23.42	3.95123
23.43	3.95978
23.44	3.96241
23.45	3.9736
23.46	3.9588
23.47	3.95123
23.48	3.96636
23.49	3.9657
23.5	3.96044
23.51	3.96537
23.52	3.95419
23.53	3.96373
23.54	3.95847
23.55	3.95551
23.56	3.9611
23.57	3.9657
23.58	3.96241
23.59	3.97426
23.6	3.95682
23.61	3.9611
23.62	3.95551
23.63	3.96472
23.64	3.95814
23.65	3.96801
23.66	3.96735
23.67	3.9532
23.68	3.96307
23.69	3.95814
23.7	3.96373
23.71	3.96208
23.72	3.96735
23.73	3.96932
23.74	3.96932
23.75	3.9532
23.76	3.95583
23.77	3.96768
23.78	3.96866
23.79	3.96373
23.8	3.96307
23.81	3.95353
23.82	3.96077
23.83	3.96077
23.84	3.96768
23.85	3.95748
23.86	3.96143
23.87	3.95123
23.88	3.96241
23.89	3.96307
23.9	3.96636
23.91	3.95057
23.92	3.96011
23.93	3.96176
23.94	3.96505
23.95	3.96505
23.96	3.96373
23.97	3.96801
23.98	3.95748
23.99	3.96274
24	3.95419
24.01	3.95452
24.02	3.96373
24.03	3.9588
24.04	3.95748
24.05	3.95254
24.06	3.95057
24.07	3.95912
24.08	3.96472
24.09	3.95616
24.1	3.9509
24.11	3.96274
24.12	3.96537
24.13	3.95781
24.14	3.96537
24.15	3.96899
24.16	3.96899
24.17	3.95485
24.18	3.9532
24.19	3.95945
24.2	3.95781
24.21	3.96472
24.22	3.97195
24.23	3.97491
24.24	3.9759
24.25	3.97459
24.26	3.96735
24.27	3.96998
24.28	3.96735
24.29	3.95978
24.3	3.9611
24.31	3.97459
24.32	3.97459
24.33	3.96208
24.34	3.9713
24.35	3.9634
24.36	3.96669
24.37	3.95945
24.38	3.95978
24.39	3.96241
24.4	3.96176
24.41	3.9657
24.42	3.96866
24.43	3.95814
24.44	3.96965
24.45	3.95057
24.46	3.9588
24.47	3.96932
24.48	3.96406
24.49	3.96044
24.5	3.96208
24.51	3.95583
24.52	3.95123
24.53	3.95057
24.54	3.95814
24.55	3.95452
24.56	3.95057
24.57	3.95222
24.58	3.95222
24.59	3.95156
24.6	3.95419
24.61	3.95123
24.62	3.96274
24.63	3.96176
24.64	3.96241
24.65	3.96439
24.66	3.95682
24.67	3.95189
24.68	3.95715
24.69	3.95156
24.7	3.94432
24.71	3.95518
24.72	3.95649
24.73	3.96406
24.74	3.95583
24.75	3.93939
24.76	3.95945
24.77	3.95551
24.78	3.95189
24.79	3.96373
24.8	3.95583
24.81	3.94794
24.82	3.94761
24.83	3.94991
24.84	3.94761
24.85	3.96044
24.86	3.96406
24.87	3.96406
24.88	3.97689
24.89	3.95123
24.9	3.95485
24.91	3.97064
24.92	3.95847
24.93	3.95353
24.94	3.94432
24.95	3.96768
24.96	3.96537
24.97	3.95518
24.98	3.95616
24.99	3.95254
25	3.96143
25.01	3.96208
25.02	3.94893
25.03	3.95222
25.04	3.95814
25.05	3.96208
25.06	3.96373
25.07	3.95616
25.08	3.95715
25.09	3.9588
25.1	3.96768
25.11	3.96208
25.12	3.94761
25.13	3.93741
25.14	3.95452
25.15	3.95287
25.16	3.95518
25.17	3.9532
25.18	3.95583
25.19	3.96077
25.2	3.96077
25.21	3.96143
25.22	3.95024
25.23	3.95518
25.24	3.96537
25.25	3.95485
25.26	3.9588
25.27	3.96143
25.28	3.96176
25.29	3.95814
25.3	3.94333
25.31	3.95419
25.32	3.95419
25.33	3.95386
25.34	3.95682
25.35	3.95583
25.36	3.94958
25.37	3.94926
25.38	3.95189
25.39	3.95583
25.4	3.95616
25.41	3.96176
25.42	3.95912
25.43	3.95254
25.44	3.96011
25.45	3.94761
25.46	3.94761
25.47	3.94893
25.48	3.94958
25.49	3.94893
25.5	3.9611
25.51	3.95123
25.52	3.96406
25.53	3.95123
25.54	3.94629
25.55	3.9509
25.56	3.9509
25.57	3.95945
25.58	3.96636
25.59	3.94629
25.6	3.96636
25.61	3.96537
25.62	3.96077
25.63	3.95452
25.64	3.97162
25.65	3.96077
25.66	3.97162
25.67	3.97294
25.68	3.95945
25.69	3.97393
25.7	3.96998
25.71	3.95649
25.72	3.94695
25.73	3.9532
25.74	3.94761
25.75	3.94761
25.76	3.95123
25.77	3.96537
25.78	3.95254
25.79	3.96603
25.8	3.9509
25.81	3.95616
25.82	3.96044
25.83	3.95551
25.84	3.96603
25.85	3.95485
25.86	3.95452
25.87	3.95419
25.88	3.95978
25.89	3.96274
25.9	3.95649
25.91	3.95945
25.92	3.96866
25.93	3.95616
25.94	3.95386
25.95	3.94465
25.96	3.93873
25.97	3.94597
25.98	3.94893
25.99	3.95353
26	3.95123
26.01	3.9407
26.02	3.9486
26.03	3.95978
26.04	3.95682
26.05	3.94629
26.06	3.95452
26.07	3.94498
26.08	3.95945
26.09	3.94103
26.1	3.94564
26.11	3.94333
26.12	3.9384
26.13	3.94893
26.14	3.92722
26.15	3.93774
26.16	3.9509
26.17	3.94597
26.18	3.95189
26.19	3.93708
26.2	3.94564
26.21	3.9486
26.22	3.94366
26.23	3.95057
26.24	3.94695
26.25	3.94695
26.26	3.9486
26.27	3.94268
26.28	3.94465
26.29	3.93741
26.3	3.94136
26.31	3.94169
26.32	3.94136
26.33	3.95189
26.34	3.93906
26.35	3.93478
26.36	3.92623
26.37	3.94366
26.38	3.93445
26.39	3.9361
26.4	3.93116
26.41	3.94893
26.42	3.94136
26.43	3.94465
26.44	3.95254
26.45	3.96176
26.46	3.93643
26.47	3.94531
26.48	3.95715
26.49	3.95814
26.5	3.95814
26.51	3.94333
26.52	3.94597
26.53	3.95386
26.54	3.94991
26.55	3.95254
26.56	3.94235
26.57	3.94728
26.58	3.94432
26.59	3.94893
26.6	3.95386
26.61	3.94564
26.62	3.95123
26.63	3.9486
26.64	3.94662
26.65	3.94926
26.66	3.9407
26.67	3.95189
26.68	3.9611
26.69	3.96077
26.7	3.94399
26.71	3.95419
26.72	3.95452
26.73	3.94235
26.74	3.9532
26.75	3.94465
26.76	3.94366
26.77	3.94136
26.78	3.95353
26.79	3.94794
26.8	3.95814
26.81	3.95649
26.82	3.9611
26.83	3.96176
26.84	3.9532
26.85	3.96143
26.86	3.95419
26.87	3.9532
26.88	3.94761
26.89	3.95485
26.9	3.95057
26.91	3.94169
26.92	3.94333
26.93	3.93906
26.94	3.95156
26.95	3.93774
26.96	3.93116
26.97	3.94103
26.98	3.94662
26.99	3.93379
27	3.94958
27.01	3.95222
27.02	3.94366
27.03	3.96143
27.04	3.95254
27.05	3.95485
27.06	3.94794
27.07	3.94893
27.08	3.9532
27.09	3.95386
27.1	3.94235
27.11	3.94465
27.12	3.93774
27.13	3.95649
27.14	3.94926
27.15	3.94926
27.16	3.94235
27.17	3.9361
27.18	3.94926
27.19	3.95254
27.2	3.94235
27.21	3.93643
27.22	3.95452
27.23	3.9509
27.24	3.95189
27.25	3.95353
27.26	3.95024
27.27	3.95386
27.28	3.94202
27.29	3.93774
27.3	3.94794
27.31	3.9509
27.32	3.9509
27.33	3.94794
27.34	3.93972
27.35	3.93083
27.36	3.94268
27.37	3.93939
27.38	3.94926
27.39	3.95024
27.4	3.9407
27.41	3.95222
27.42	3.95945
27.43	3.94465
27.44	3.92919
27.45	3.94333
27.46	3.93807
27.47	3.93972
27.48	3.93445
27.49	3.93807
27.5	3.93347
27.51	3.93511
27.52	3.94662
27.53	3.95748
27.54	3.94169
27.55	3.93511
27.56	3.9384
27.57	3.94564
27.58	3.95847
27.59	3.95715
27.6	3.9384
27.61	3.94268
27.62	3.94958
27.63	3.93248
27.64	3.93873
27.65	3.94136
27.66	3.9282
27.67	3.94004
27.68	3.93577
27.69	3.94202
27.7	3.94103
27.71	3.9407
27.72	3.95485
27.73	3.94465
27.74	3.9361
27.75	3.94662
27.76	3.93939
27.77	3.93347
27.78	3.93445
27.79	3.9236
27.8	3.93972
27.81	3.92064
27.82	3.94728
27.83	3.94761
27.84	3.93083
27.85	3.94498
27.86	3.94004
27.87	3.94465
27.88	3.95123
27.89	3.94827
27.9	3.94301
27.91	3.94169
27.92	3.95024
27.93	3.94301
27.94	3.93544
27.95	3.94564
27.96	3.93018
27.97	3.93741
27.98	3.94399
27.99	3.94004
28	3.94629
28.01	3.93873
28.02	3.94268
28.03	3.94169
28.04	3.9532
28.05	3.95123
28.06	3.95616
28.07	3.94103
28.08	3.9361
28.09	3.94465
28.1	3.94827
28.11	3.95189
28.12	3.94662
28.13	3.94136
28.14	3.94037
28.15	3.95189
28.16	3.96373
28.17	3.95057
28.18	3.95057
28.19	3.94498
28.2	3.94301
28.21	3.93083
28.22	3.93215
28.23	3.94301
28.24	3.94004
28.25	3.94136
28.26	3.94531
28.27	3.94399
28.28	3.93643
28.29	3.93149
28.3	3.9361
28.31	3.94926
28.32	3.93741
28.33	3.9361
28.34	3.95353
28.35	3.92754
28.36	3.92129
28.37	3.92886
28.38	3.93873
28.39	3.94037
28.4	3.92425
28.41	3.93018
28.42	3.94333
28.43	3.94004
28.44	3.93445
28.45	3.9361
28.46	3.93708
28.47	3.93972
28.48	3.93182
28.49	3.92689
28.5	3.93741
28.51	3.94893
28.52	3.94597
28.53	3.93018
28.54	3.93379
28.55	3.95156
28.56	3.93412
28.57	3.94169
28.58	3.93774
28.59	3.93347
28.6	3.93149
28.61	3.93445
28.62	3.92524
28.63	3.93215
28.64	3.93675
28.65	3.93083
28.66	3.93379
28.67	3.9305
28.68	3.93741
28.69	3.94169
28.7	3.95156
28.71	3.9486
28.72	3.93972
28.73	3.94926
28.74	3.94235
28.75	3.93544
28.76	3.93708
28.77	3.93577
28.78	3.93741
28.79	3.94958
28.8	3.93906
28.81	3.94531
28.82	3.94465
28.83	3.9282
28.84	3.93643
28.85	3.9282
28.86	3.9407
28.87	3.93445
28.88	3.93478
28.89	3.92886
28.9	3.94301
28.91	3.93149
28.92	3.94169
28.93	3.9384
28.94	3.92985
28.95	3.93445
28.96	3.94893
28.97	3.93972
28.98	3.94662
28.99	3.94399
29	3.92228
29.01	3.93018
29.02	3.94399
29.03	3.9407
29.04	3.93347
29.05	3.93083
29.06	3.93018
29.07	3.93281
29.08	3.93939
29.09	3.93379
29.1	3.93478
29.11	3.92787
29.12	3.93873
29.13	3.92952
29.14	3.9361
29.15	3.94629
29.16	3.93807
29.17	3.9305
29.18	3.93018
29.19	3.93544
29.2	3.9384
29.21	3.95287
29.22	3.94597
29.23	3.93478
29.24	3.92689
29.25	3.93083
29.26	3.9384
29.27	3.92228
29.28	3.94235
29.29	3.94465
29.3	3.94761
29.31	3.9486
29.32	3.93281
29.33	3.94037
29.34	3.9384
29.35	3.94498
29.36	3.92952
29.37	3.94301
29.38	3.93774
29.39	3.9407
29.4	3.93774
29.41	3.93675
29.42	3.92787
29.43	3.93445
29.44	3.94268
29.45	3.95057
29.46	3.94531
29.47	3.93478
29.48	3.94136
29.49	3.92985
29.5	3.94301
29.51	3.93281
29.52	3.94037
29.53	3.94564
29.54	3.9305
29.55	3.94728
29.56	3.93939
29.57	3.94169
29.58	3.93149
29.59	3.93347
29.6	3.93149
29.61	3.9361
29.62	3.94333
29.63	3.92623
29.64	3.93347
29.65	3.93511
29.66	3.9236
29.67	3.9305
29.68	3.93511
29.69	3.92886
29.7	3.92722
29.71	3.9111
29.72	3.92886
29.73	3.9305
29.74	3.93116
29.75	3.92129
29.76	3.93577
29.77	3.93511
29.78	3.92656
29.79	3.92557
29.8	3.93478
29.81	3.9384
29.82	3.92623
29.83	3.91965
29.84	3.92458
29.85	3.91603
29.86	3.91965
29.87	3.92294
29.88	3.92952
29.89	3.92195
29.9	3.92754
29.91	3.93149
29.92	3.93018
29.93	3.92491
29.94	3.93873
29.95	3.94498
29.96	3.93347
29.97	3.92162
29.98	3.92985
29.99	3.92919
30	3.93083
