"BIO-KINE ASCII FILE"
"_COMMENT"	"MOS-500 Spectrometer"
"_COMMENT"	"Kinetics measurement"
"_COMMENT"	"Y Unit : Volt,  X Unit : s"
"_COMMENT"	"Excitation wavelength : 380 nm"
"_COMMENT"	"Fentes bandwidth =  1 nm"
"_COMMENT"	"HV= 700V"
"_COMMENT"	"Timebase  1 =  .01 s   3001 pts"
"_SFM"	"SFM-400 /S  Advanced mode"
"_SFM"	"Ratio : S1: 2.5, S2: 0, S3: 0, S4: 1"
"_SFM"	"Content : S1: , S2: , S3: , S4:"
"_SFM"	"Concentration : S1: , S2: , S3: , S4:"
"_SFM"	"Total volume : 209 µl  Flow : 3.5 mL/s"
"_SFM"	"Acquisition start :  10 ms before stop"
"_SFM"	"cuve=FC-15, s1=10 ml , s2=10 ml , s3=10 ml , s4=1.9 ml"
"_UNITX"	"s"
"_UNITY"	"Volt"
"_DELTAX"	0
"_DATA"
1e-300	6.71579
0.01	7.36317
0.02	7.7918
0.03	7.77239
0.04	7.73851
0.05	7.74246
0.06	7.74607
0.07	7.74246
0.08	7.75693
0.09	7.76811
0.1	7.76877
0.11	7.78193
0.12	7.77206
0.13	7.76186
0.14	7.76844
0.15	7.78325
0.16	7.76351
0.17	7.76154
0.18	7.76121
0.19	7.74673
0.2	7.76055
0.21	7.76186
0.22	7.74443
0.23	7.74147
0.24	7.74015
0.25	7.74542
0.26	7.73456
0.27	7.74015
0.28	7.7293
0.29	7.73785
0.3	7.72107
0.31	7.71318
0.32	7.71351
0.33	7.71186
0.34	7.71252
0.35	7.69344
0.36	7.68752
0.37	7.69903
0.38	7.68982
0.39	7.68588
0.4	7.67963
0.41	7.67798
0.42	7.66449
0.43	7.66285
0.44	7.66153
0.45	7.66022
0.46	7.6362
0.47	7.64509
0.48	7.63851
0.49	7.63555
0.5	7.6237
0.51	7.6339
0.52	7.62798
0.53	7.61219
0.54	7.60693
0.55	7.60298
0.56	7.59508
0.57	7.5987
0.58	7.59278
0.59	7.59245
0.6	7.59607
0.61	7.57798
0.62	7.56975
0.63	7.57074
0.64	7.56614
0.65	7.56054
0.66	7.55396
0.67	7.53489
0.68	7.53719
0.69	7.53192
0.7	7.52864
0.71	7.51449
0.72	7.5112
0.73	7.51383
0.74	7.50956
0.75	7.51219
0.76	7.4862
0.77	7.47173
0.78	7.47666
0.79	7.47436
0.8	7.47173
0.81	7.45298
0.82	7.45067
0.83	7.44936
0.84	7.45528
0.85	7.44771
0.86	7.4339
0.87	7.44738
0.88	7.43751
0.89	7.42271
0.9	7.4135
0.91	7.40593
0.92	7.41218
0.93	7.40429
0.94	7.401
0.95	7.3885
0.96	7.38686
0.97	7.37995
0.98	7.35988
0.99	7.36218
1	7.34672
1.01	7.34574
1.02	7.34574
1.03	7.3533
1.04	7.3362
1.05	7.33159
1.06	7.34014
1.07	7.3306
1.08	7.32238
1.09	7.3135
1.1	7.30264
1.11	7.30495
1.12	7.29804
1.13	7.29179
1.14	7.29146
1.15	7.27962
1.16	7.26679
1.17	7.26021
1.18	7.26843
1.19	7.26415
1.2	7.25889
1.21	7.24508
1.22	7.23586
1.23	7.23323
1.24	7.21942
1.25	7.22501
1.26	7.20659
1.27	7.18751
1.28	7.19935
1.29	7.19113
1.3	7.20165
1.31	7.19211
1.32	7.17402
1.33	7.19803
1.34	7.17567
1.35	7.17205
1.36	7.15099
1.37	7.15395
1.38	7.14902
1.39	7.13948
1.4	7.1283
1.41	7.12698
1.42	7.10132
1.43	7.10428
1.44	7.10461
1.45	7.09902
1.46	7.09869
1.47	7.10001
1.48	7.08948
1.49	7.07533
1.5	7.07566
1.51	7.06612
1.52	7.06678
1.53	7.05856
1.54	7.04573
1.55	7.02961
1.56	7.03323
1.57	7.03849
1.58	7.0306
1.59	7.03948
1.6	7.02139
1.61	7.01415
1.62	7.00954
1.63	7.00198
1.64	6.98915
1.65	6.97862
1.66	6.97698
1.67	6.96645
1.68	6.96217
1.69	6.96678
1.7	6.94244
1.71	6.95658
1.72	6.94441
1.73	6.92994
1.74	6.93125
1.75	6.94178
1.76	6.91744
1.77	6.9204
1.78	6.91678
1.79	6.91579
1.8	6.9
1.81	6.88684
1.82	6.88882
1.83	6.89243
1.84	6.88487
1.85	6.8898
1.86	6.8727
1.87	6.87007
1.88	6.85757
1.89	6.85395
1.9	6.83289
1.91	6.83553
1.92	6.83914
1.93	6.83487
1.94	6.83289
1.95	6.80987
1.96	6.79309
1.97	6.80427
1.98	6.80362
1.99	6.8
2	6.78519
2.01	6.78914
2.02	6.77862
2.03	6.77598
2.04	6.76447
2.05	6.76151
2.06	6.76283
2.07	6.73848
2.08	6.74605
2.09	6.73026
2.1	6.74046
2.11	6.72829
2.12	6.71907
2.13	6.70756
2.14	6.71282
2.15	6.70953
2.16	6.69802
2.17	6.6773
2.18	6.69144
2.19	6.67697
2.2	6.67302
2.21	6.65986
2.22	6.65197
2.23	6.64966
2.24	6.64966
2.25	6.6444
2.26	6.64769
2.27	6.63256
2.28	6.63223
2.29	6.63223
2.3	6.6171
2.31	6.59605
2.32	6.59473
2.33	6.5921
2.34	6.59177
2.35	6.59012
2.36	6.58782
2.37	6.58354
2.38	6.56973
2.39	6.56874
2.4	6.56183
2.41	6.55065
2.42	6.54703
2.43	6.55131
2.44	6.55098
2.45	6.54407
2.46	6.52894
2.47	6.52335
2.48	6.51808
2.49	6.5194
2.5	6.49834
2.51	6.49275
2.52	6.4842
2.53	6.49012
2.54	6.48091
2.55	6.49012
2.56	6.47992
2.57	6.46348
2.58	6.46742
2.59	6.45295
2.6	6.43519
2.61	6.43157
2.62	6.43124
2.63	6.43979
2.64	6.42894
2.65	6.43288
2.66	6.41874
2.67	6.40722
2.68	6.39571
2.69	6.38847
2.7	6.3865
2.71	6.38485
2.72	6.37992
2.73	6.37268
2.74	6.3615
2.75	6.3536
2.76	6.34702
2.77	6.34045
2.78	6.34571
2.79	6.33749
2.8	6.33617
2.81	6.33189
2.82	6.32992
2.83	6.32663
2.84	6.31446
2.85	6.31545
2.86	6.31018
2.87	6.29176
2.88	6.2911
2.89	6.29472
2.9	6.28551
2.91	6.26479
2.92	6.27433
2.93	6.26577
2.94	6.26347
2.95	6.26183
2.96	6.25064
2.97	6.2513
2.98	6.24669
2.99	6.23255
3	6.22827
3.01	6.21511
3.02	6.22202
3.03	6.22202
3.04	6.22827
3.05	6.20623
3.06	6.20031
3.07	6.19669
3.08	6.19307
3.09	6.19439
3.1	6.18847
3.11	6.1832
3.12	6.1707
3.13	6.16807
3.14	6.16149
3.15	6.16873
3.16	6.15524
3.17	6.14702
3.18	6.1388
3.19	6.14834
3.2	6.14011
3.21	6.13057
3.22	6.10919
3.23	6.10689
3.24	6.11807
3.25	6.10689
3.26	6.09373
3.27	6.08978
3.28	6.08847
3.29	6.07958
3.3	6.06017
3.31	6.07037
3.32	6.08189
3.33	6.06478
3.34	6.06412
3.35	6.04965
3.36	6.04011
3.37	6.03057
3.38	6.02761
3.39	6.02859
3.4	6.02629
3.41	6.02695
3.42	6.01642
3.43	6.00392
3.44	6.00261
3.45	5.9934
3.46	5.99833
3.47	5.99274
3.48	5.9832
3.49	5.97004
3.5	5.97465
3.51	5.96807
3.52	5.95524
3.53	5.948
3.54	5.93912
3.55	5.94866
3.56	5.94076
3.57	5.93714
3.58	5.94274
3.59	5.94701
3.6	5.91971
3.61	5.92004
3.62	5.91017
3.63	5.93024
3.64	5.90524
3.65	5.90228
3.66	5.90359
3.67	5.89372
3.68	5.88846
3.69	5.88056
3.7	5.87596
3.71	5.87464
3.72	5.8776
3.73	5.8707
3.74	5.86247
3.75	5.85655
3.76	5.84372
3.77	5.8401
3.78	5.83747
3.79	5.83056
3.8	5.83056
3.81	5.82958
3.82	5.83056
3.83	5.83517
3.84	5.81609
3.85	5.80326
3.86	5.80918
3.87	5.80523
3.88	5.79504
3.89	5.78254
3.9	5.7878
3.91	5.78056
3.92	5.77234
3.93	5.76905
3.94	5.75457
3.95	5.75424
3.96	5.7549
3.97	5.7549
3.98	5.74174
3.99	5.73944
4	5.72431
4.01	5.73056
4.02	5.73352
4.03	5.71839
4.04	5.71641
4.05	5.70424
4.06	5.7072
4.07	5.69174
4.08	5.70194
4.09	5.68549
4.1	5.68155
4.11	5.67497
4.12	5.68253
4.13	5.66806
4.14	5.66872
4.15	5.66148
4.16	5.66312
4.17	5.65819
4.18	5.65786
4.19	5.6447
4.2	5.64602
4.21	5.64075
4.22	5.63516
4.23	5.62727
4.24	5.622
4.25	5.62266
4.26	5.62168
4.27	5.62332
4.28	5.61773
4.29	5.60062
4.3	5.60194
4.31	5.6072
4.32	5.59964
4.33	5.58056
4.34	5.58516
4.35	5.57858
4.36	5.57134
4.37	5.56773
4.38	5.56246
4.39	5.56477
4.4	5.56411
4.41	5.56016
4.42	5.547
4.43	5.5447
4.44	5.55194
4.45	5.54865
4.46	5.5243
4.47	5.52924
4.48	5.53549
4.49	5.51871
4.5	5.50851
4.51	5.51115
4.52	5.51312
4.53	5.50621
4.54	5.49503
4.55	5.50325
4.56	5.50424
4.57	5.49075
4.58	5.49075
4.59	5.48055
4.6	5.46378
4.61	5.4641
4.62	5.46443
4.63	5.47101
4.64	5.46772
4.65	5.45522
4.66	5.44733
4.67	5.44963
4.68	5.44174
4.69	5.44108
4.7	5.43581
4.71	5.422
4.72	5.42529
4.73	5.42693
4.74	5.42364
4.75	5.4266
4.76	5.41871
4.77	5.41641
4.78	5.40423
4.79	5.39239
4.8	5.40029
4.81	5.38713
4.82	5.38647
4.83	5.38187
4.84	5.38417
4.85	5.37693
4.86	5.38219
4.87	5.37627
4.88	5.36311
4.89	5.35719
4.9	5.35358
4.91	5.34831
4.92	5.35061
4.93	5.34732
4.94	5.34436
4.95	5.3493
4.96	5.33746
4.97	5.32726
4.98	5.32726
4.99	5.32825
5	5.32232
5.01	5.3243
5.02	5.30982
5.03	5.30917
5.04	5.30522
5.05	5.29601
5.06	5.2789
5.07	5.28351
5.08	5.28482
5.09	5.28581
5.1	5.28384
5.11	5.27627
5.12	5.27397
5.13	5.2766
5.14	5.2743
5.15	5.26574
5.16	5.26969
5.17	5.26377
5.18	5.26245
5.19	5.25489
5.2	5.24239
5.21	5.23515
5.22	5.22956
5.23	5.23416
5.24	5.24337
5.25	5.2266
5.26	5.22101
5.27	5.22331
5.28	5.22199
5.29	5.22068
5.3	5.22035
5.31	5.20818
5.32	5.20127
5.33	5.2039
5.34	5.20193
5.35	5.19535
5.36	5.19074
5.37	5.19535
5.38	5.1766
5.39	5.18745
5.4	5.17627
5.41	5.17693
5.42	5.16771
5.43	5.16607
5.44	5.16212
5.45	5.15916
5.46	5.14567
5.47	5.16114
5.48	5.15587
5.49	5.14831
5.5	5.14173
5.51	5.13646
5.52	5.14502
5.53	5.14008
5.54	5.14271
5.55	5.12725
5.56	5.11969
5.57	5.12034
5.58	5.12298
5.59	5.11969
5.6	5.11311
5.61	5.10258
5.62	5.11146
5.63	5.10653
5.64	5.09863
5.65	5.09765
5.66	5.096
5.67	5.09469
5.68	5.10291
5.69	5.07922
5.7	5.06837
5.71	5.07594
5.72	5.06672
5.73	5.06804
5.74	5.06672
5.75	5.06047
5.76	5.05587
5.77	5.0483
5.78	5.06047
5.79	5.0539
5.8	5.04501
5.81	5.04304
5.82	5.04633
5.83	5.03547
5.84	5.03679
5.85	5.0256
5.86	5.02232
5.87	5.01705
5.88	5.03876
5.89	5.02396
5.9	5.01935
5.91	5.01475
5.92	5.00949
5.93	5.0085
5.94	5.00751
5.95	4.99962
5.96	4.99863
5.97	4.98449
5.98	4.98777
5.99	4.99106
6	4.99074
6.01	4.9812
6.02	4.9858
6.03	4.98416
6.04	4.97495
6.05	4.97034
6.06	4.97297
6.07	4.97396
6.08	4.97133
6.09	4.96606
6.1	4.96244
6.11	4.96277
6.12	4.96179
6.13	4.94665
6.14	4.95652
6.15	4.94271
6.16	4.94369
6.17	4.94205
6.18	4.94106
6.19	4.9335
6.2	4.93777
6.21	4.92461
6.22	4.92955
6.23	4.93021
6.24	4.92165
6.25	4.92692
6.26	4.92264
6.27	4.89994
6.28	4.90817
6.29	4.91442
6.3	4.91442
6.31	4.91277
6.32	4.9006
6.33	4.90159
6.34	4.90422
6.35	4.89534
6.36	4.88481
6.37	4.89106
6.38	4.88711
6.39	4.86771
6.4	4.87494
6.41	4.86771
6.42	4.87889
6.43	4.86178
6.44	4.87297
6.45	4.86145
6.46	4.85948
6.47	4.87001
6.48	4.86047
6.49	4.85817
6.5	4.85224
6.51	4.85455
6.52	4.8529
6.53	4.84336
6.54	4.84863
6.55	4.83777
6.56	4.84336
6.57	4.8381
6.58	4.8427
6.59	4.83284
6.6	4.82955
6.61	4.83678
6.62	4.83086
6.63	4.83613
6.64	4.82988
6.65	4.81474
6.66	4.80915
6.67	4.81014
6.68	4.81639
6.69	4.80257
6.7	4.81343
6.71	4.80389
6.72	4.78481
6.73	4.78415
6.74	4.79402
6.75	4.80224
6.76	4.79994
6.77	4.79435
6.78	4.79632
6.79	4.79106
6.8	4.78382
6.81	4.78152
6.82	4.77132
6.83	4.77264
6.84	4.77264
6.85	4.77297
6.86	4.76606
6.87	4.76737
6.88	4.75849
6.89	4.74961
6.9	4.75257
6.91	4.75586
6.92	4.75849
6.93	4.74665
6.94	4.74632
6.95	4.74237
6.96	4.74961
6.97	4.74632
6.98	4.73448
6.99	4.73974
7	4.73546
7.01	4.71869
7.02	4.71474
7.03	4.71573
7.04	4.72461
7.05	4.72428
7.06	4.72033
7.07	4.7154
7.08	4.71013
7.09	4.70454
7.1	4.70849
7.11	4.71178
7.12	4.70586
7.13	4.70125
7.14	4.70388
7.15	4.70882
7.16	4.70684
7.17	4.70915
7.18	4.695
7.19	4.6904
7.2	4.69007
7.21	4.68678
7.22	4.67823
7.23	4.68579
7.24	4.68184
7.25	4.68283
7.26	4.67461
7.27	4.67527
7.28	4.68217
7.29	4.66934
7.3	4.66836
7.31	4.67
7.32	4.65717
7.33	4.66408
7.34	4.6529
7.35	4.64796
7.36	4.65586
7.37	4.64763
7.38	4.64434
7.39	4.63974
7.4	4.64303
7.41	4.64237
7.42	4.64994
7.43	4.63151
7.44	4.63743
7.45	4.64895
7.46	4.64599
7.47	4.63842
7.48	4.63711
7.49	4.62329
7.5	4.62099
7.51	4.61704
7.52	4.62658
7.53	4.62329
7.54	4.61868
7.55	4.61934
7.56	4.6075
7.57	4.61079
7.58	4.60289
7.59	4.60816
7.6	4.60618
7.61	4.60684
7.62	4.61638
7.63	4.59204
7.64	4.59796
7.65	4.59697
7.66	4.59467
7.67	4.59138
7.68	4.59237
7.69	4.58875
7.7	4.59105
7.71	4.58612
7.72	4.57329
7.73	4.57987
7.74	4.58118
7.75	4.57362
7.76	4.57066
7.77	4.56868
7.78	4.57625
7.79	4.5871
7.8	4.57033
7.81	4.5825
7.82	4.57658
7.83	4.57362
7.84	4.56474
7.85	4.57
7.86	4.56802
7.87	4.56408
7.88	4.55158
7.89	4.56375
7.9	4.55717
7.91	4.55388
7.92	4.54862
7.93	4.55914
7.94	4.55454
7.95	4.5473
7.96	4.54138
7.97	4.54368
7.98	4.54697
7.99	4.54763
8	4.54598
8.01	4.54697
8.02	4.5427
8.03	4.52658
8.04	4.54105
8.05	4.53644
8.06	4.52723
8.07	4.54105
8.08	4.52296
8.09	4.53513
8.1	4.53644
8.11	4.5121
8.12	4.51868
8.13	4.53677
8.14	4.51934
8.15	4.52329
8.16	4.51671
8.17	4.52
8.18	4.51276
8.19	4.50289
8.2	4.50421
8.21	4.51013
8.22	4.51638
8.23	4.51046
8.24	4.51638
8.25	4.51638
8.26	4.50223
8.27	4.49993
8.28	4.49039
8.29	4.48579
8.3	4.48973
8.31	4.49664
8.32	4.49105
8.33	4.48875
8.34	4.495
8.35	4.47789
8.36	4.48019
8.37	4.48776
8.38	4.48677
8.39	4.48677
8.4	4.47789
8.41	4.48184
8.42	4.47756
8.43	4.46967
8.44	4.47164
8.45	4.47789
8.46	4.48184
8.47	4.47197
8.48	4.4644
8.49	4.4746
8.5	4.47394
8.51	4.47197
8.52	4.46835
8.53	4.45322
8.54	4.45256
8.55	4.45585
8.56	4.45026
8.57	4.45519
8.58	4.44401
8.59	4.45223
8.6	4.44664
8.61	4.45289
8.62	4.45585
8.63	4.45421
8.64	4.45421
8.65	4.45092
8.66	4.44072
8.67	4.4473
8.68	4.4473
8.69	4.44269
8.7	4.43677
8.71	4.42559
8.72	4.43414
8.73	4.43151
8.74	4.43447
8.75	4.42986
8.76	4.42065
8.77	4.4223
8.78	4.42098
8.79	4.42263
8.8	4.42624
8.81	4.42888
8.82	4.42756
8.83	4.42822
8.84	4.42592
8.85	4.42131
8.86	4.41638
8.87	4.40716
8.88	4.40749
8.89	4.4144
8.9	4.4223
8.91	4.4167
8.92	4.39993
8.93	4.40091
8.94	4.40716
8.95	4.40782
8.96	4.41539
8.97	4.4019
8.98	4.40815
8.99	4.3996
9	4.39697
9.01	4.39072
9.02	4.3973
9.03	4.40157
9.04	4.39269
9.05	4.39631
9.06	4.39993
9.07	4.40519
9.08	4.39236
9.09	4.39039
9.1	4.38841
9.11	4.39006
9.12	4.38776
9.13	4.38743
9.14	4.39861
9.15	4.38611
9.16	4.37756
9.17	4.37657
9.18	4.38118
9.19	4.38216
9.2	4.37427
9.21	4.37394
9.22	4.37493
9.23	4.37624
9.24	4.36999
9.25	4.37624
9.26	4.36177
9.27	4.37493
9.28	4.3644
9.29	4.35716
9.3	4.35683
9.31	4.35979
9.32	4.36308
9.33	4.36045
9.34	4.35025
9.35	4.34861
9.36	4.35058
9.37	4.35881
9.38	4.35322
9.39	4.35058
9.4	4.36111
9.41	4.3519
9.42	4.33973
9.43	4.33841
9.44	4.34828
9.45	4.34039
9.46	4.34466
9.47	4.35782
9.48	4.35091
9.49	4.34598
9.5	4.33414
9.51	4.34697
9.52	4.34795
9.53	4.33611
9.54	4.34269
9.55	4.33315
9.56	4.33578
9.57	4.33479
9.58	4.34433
9.59	4.34236
9.6	4.33775
9.61	4.33775
9.62	4.34104
9.63	4.3417
9.64	4.34269
9.65	4.33479
9.66	4.32394
9.67	4.31802
9.68	4.3292
9.69	4.32624
9.7	4.3269
9.71	4.32295
9.72	4.32854
9.73	4.32789
9.74	4.31966
9.75	4.32657
9.76	4.32295
9.77	4.319
9.78	4.31637
9.79	4.32065
9.8	4.31374
9.81	4.31835
9.82	4.31473
9.83	4.30979
9.84	4.32032
9.85	4.32361
9.86	4.30848
9.87	4.3065
9.88	4.31012
9.89	4.29795
9.9	4.30979
9.91	4.30387
9.92	4.30387
9.93	4.30223
9.94	4.30288
9.95	4.30782
9.96	4.29663
9.97	4.29762
9.98	4.30519
9.99	4.30552
10	4.29795
10.01	4.29894
10.02	4.29433
10.03	4.29762
10.04	4.2917
10.05	4.29236
10.06	4.29598
10.07	4.29203
10.08	4.29367
10.09	4.29466
10.1	4.30157
10.11	4.29598
10.12	4.30091
10.13	4.28841
10.14	4.28973
10.15	4.28512
10.16	4.28611
10.17	4.28545
10.18	4.28611
10.19	4.28874
10.2	4.28216
10.21	4.28512
10.22	4.2815
10.23	4.28052
10.24	4.28479
10.25	4.28611
10.26	4.27756
10.27	4.28216
10.28	4.28183
10.29	4.28249
10.3	4.27986
10.31	4.2769
10.32	4.27657
10.33	4.28479
10.34	4.28249
10.35	4.27492
10.36	4.26374
10.37	4.27065
10.38	4.27756
10.39	4.27624
10.4	4.26637
10.41	4.27262
10.42	4.26802
10.43	4.27492
10.44	4.26703
10.45	4.26571
10.46	4.26374
10.47	4.25749
10.48	4.26637
10.49	4.25946
10.5	4.26078
10.51	4.25453
10.52	4.26703
10.53	4.25387
10.54	4.25519
10.55	4.26769
10.56	4.26802
10.57	4.26209
10.58	4.24959
10.59	4.2417
10.6	4.24959
10.61	4.25749
10.62	4.25979
10.63	4.25321
10.64	4.25058
10.65	4.25683
10.66	4.2542
10.67	4.25058
10.68	4.2394
10.69	4.24532
10.7	4.24762
10.71	4.23775
10.72	4.24203
10.73	4.24828
10.74	4.25288
10.75	4.24005
10.76	4.23775
10.77	4.24959
10.78	4.24236
10.79	4.25617
10.8	4.24499
10.81	4.23973
10.82	4.23874
10.83	4.23907
10.84	4.23973
10.85	4.23874
10.86	4.23709
10.87	4.24071
10.88	4.23347
10.89	4.23019
10.9	4.23216
10.91	4.23282
10.92	4.23611
10.93	4.22788
10.94	4.22887
10.95	4.22788
10.96	4.23611
10.97	4.24236
10.98	4.23446
10.99	4.21966
11	4.22492
11.01	4.23512
11.02	4.22361
11.03	4.22525
11.04	4.22262
11.05	4.22328
11.06	4.2315
11.07	4.21736
11.08	4.22196
11.09	4.21703
11.1	4.22328
11.11	4.2213
11.12	4.22097
11.13	4.21341
11.14	4.22328
11.15	4.21637
11.16	4.21341
11.17	4.21505
11.18	4.22492
11.19	4.22262
11.2	4.22328
11.21	4.22525
11.22	4.21801
11.23	4.22032
11.24	4.219
11.25	4.21604
11.26	4.219
11.27	4.21045
11.28	4.2144
11.29	4.21012
11.3	4.20946
11.31	4.20749
11.32	4.20255
11.33	4.19762
11.34	4.20683
11.35	4.20617
11.36	4.21176
11.37	4.21538
11.38	4.21242
11.39	4.2065
11.4	4.19861
11.41	4.20584
11.42	4.21703
11.43	4.21209
11.44	4.20255
11.45	4.20979
11.46	4.21703
11.47	4.19828
11.48	4.19861
11.49	4.19992
11.5	4.19597
11.51	4.2042
11.52	4.20222
11.53	4.20551
11.54	4.20584
11.55	4.19137
11.56	4.194
11.57	4.19137
11.58	4.19959
11.59	4.19532
11.6	4.1861
11.61	4.1838
11.62	4.18709
11.63	4.19071
11.64	4.1917
11.65	4.18874
11.66	4.1917
11.67	4.18249
11.68	4.1838
11.69	4.19104
11.7	4.18183
11.71	4.18282
11.72	4.17854
11.73	4.17525
11.74	4.19334
11.75	4.18939
11.76	4.18446
11.77	4.18084
11.78	4.1917
11.79	4.17525
11.8	4.18018
11.81	4.19005
11.82	4.19597
11.83	4.18676
11.84	4.18676
11.85	4.18545
11.86	4.18347
11.87	4.18216
11.88	4.18709
11.89	4.1792
11.9	4.18183
11.91	4.18051
11.92	4.17558
11.93	4.17985
11.94	4.18117
11.95	4.1838
11.96	4.18545
11.97	4.18018
11.98	4.18578
11.99	4.17591
12	4.18578
12.01	4.1792
12.02	4.18413
12.03	4.18643
12.04	4.17887
12.05	4.18643
12.06	4.18413
12.07	4.18216
12.08	4.18413
12.09	4.1861
12.1	4.16768
12.11	4.18117
12.12	4.17887
12.13	4.17262
12.14	4.17229
12.15	4.17591
12.16	4.17492
12.17	4.1713
12.18	4.17426
12.19	4.17591
12.2	4.17328
12.21	4.16637
12.22	4.1736
12.23	4.18249
12.24	4.15781
12.25	4.16406
12.26	4.1713
12.27	4.16472
12.28	4.16045
12.29	4.16242
12.3	4.16604
12.31	4.16341
12.32	4.16209
12.33	4.15913
12.34	4.1542
12.35	4.16341
12.36	4.16242
12.37	4.1667
12.38	4.15913
12.39	4.15584
12.4	4.16012
12.41	4.16143
12.42	4.16735
12.43	4.15781
12.44	4.15518
12.45	4.15781
12.46	4.1611
12.47	4.16604
12.48	4.16012
12.49	4.14893
12.5	4.15124
12.51	4.14696
12.52	4.15617
12.53	4.16439
12.54	4.16275
12.55	4.14992
12.56	4.15222
12.57	4.16538
12.58	4.16505
12.59	4.14597
12.6	4.13841
12.61	4.13676
12.62	4.15288
12.63	4.15716
12.64	4.1542
12.65	4.15222
12.66	4.16078
12.67	4.15518
12.68	4.14466
12.69	4.14367
12.7	4.15124
12.71	4.14433
12.72	4.14466
12.73	4.14531
12.74	4.14762
12.75	4.14696
12.76	4.15716
12.77	4.16472
12.78	4.14433
12.79	4.13775
12.8	4.14367
12.81	4.14597
12.82	4.15749
12.83	4.14564
12.84	4.13841
12.85	4.15025
12.86	4.15255
12.87	4.14696
12.88	4.14235
12.89	4.15354
12.9	4.14893
12.91	4.144
12.92	4.13577
12.93	4.144
12.94	4.14795
12.95	4.13972
12.96	4.14729
12.97	4.13972
12.98	4.1417
12.99	4.13939
13	4.14038
13.01	4.14334
13.02	4.14268
13.03	4.14564
13.04	4.14235
13.05	4.13709
13.06	4.12952
13.07	4.13413
13.08	4.14531
13.09	4.13643
13.1	4.1292
13.11	4.12459
13.12	4.12295
13.13	4.12623
13.14	4.13018
13.15	4.12952
13.16	4.13051
13.17	4.12821
13.18	4.12459
13.19	4.12656
13.2	4.12887
13.21	4.1315
13.22	4.13314
13.23	4.12821
13.24	4.12985
13.25	4.13216
13.26	4.12755
13.27	4.13018
13.28	4.1361
13.29	4.12788
13.3	4.12788
13.31	4.12788
13.32	4.12887
13.33	4.12525
13.34	4.11406
13.35	4.11275
13.36	4.11702
13.37	4.12952
13.38	4.12952
13.39	4.1315
13.4	4.12952
13.41	4.12393
13.42	4.13281
13.43	4.13314
13.44	4.12854
13.45	4.11768
13.46	4.12525
13.47	4.12492
13.48	4.12295
13.49	4.1315
13.5	4.12459
13.51	4.12295
13.52	4.12689
13.53	4.12393
13.54	4.12064
13.55	4.12558
13.56	4.12558
13.57	4.11571
13.58	4.11933
13.59	4.11308
13.6	4.11933
13.61	4.11604
13.62	4.13216
13.63	4.12459
13.64	4.10847
13.65	4.11176
13.66	4.12854
13.67	4.11669
13.68	4.11834
13.69	4.11044
13.7	4.11966
13.71	4.11637
13.72	4.11077
13.73	4.11143
13.74	4.11406
13.75	4.11406
13.76	4.11735
13.77	4.11637
13.78	4.11735
13.79	4.11044
13.8	4.11571
13.81	4.11702
13.82	4.11209
13.83	4.11012
13.84	4.11604
13.85	4.12295
13.86	4.11275
13.87	4.1065
13.88	4.11209
13.89	4.11998
13.9	4.11669
13.91	4.11472
13.92	4.11143
13.93	4.11209
13.94	4.1088
13.95	4.10683
13.96	4.11637
13.97	4.10321
13.98	4.10255
13.99	4.10222
14	4.09762
14.01	4.11176
14.02	4.11012
14.03	4.11801
14.04	4.11143
14.05	4.10551
14.06	4.09531
14.07	4.10123
14.08	4.10716
14.09	4.10979
14.1	4.10419
14.11	4.10946
14.12	4.10781
14.13	4.10814
14.14	4.10354
14.15	4.1065
14.16	4.09498
14.17	4.10222
14.18	4.11242
14.19	4.09794
14.2	4.11176
14.21	4.1088
14.22	4.09762
14.23	4.10025
14.24	4.10354
14.25	4.10123
14.26	4.10321
14.27	4.09926
14.28	4.119
14.29	4.10321
14.3	4.09696
14.31	4.09992
14.32	4.09663
14.33	4.10123
14.34	4.09367
14.35	4.09696
14.36	4.09498
14.37	4.10584
14.38	4.10781
14.39	4.09729
14.4	4.09301
14.41	4.094
14.42	4.1065
14.43	4.10156
14.44	4.1065
14.45	4.10288
14.46	4.09104
14.47	4.09005
14.48	4.09926
14.49	4.09827
14.5	4.09663
14.51	4.10617
14.52	4.08972
14.53	4.0884
14.54	4.09465
14.55	4.10058
14.56	4.09235
14.57	4.08972
14.58	4.09104
14.59	4.08906
14.6	4.08939
14.61	4.09235
14.62	4.09202
14.63	4.09202
14.64	4.09663
14.65	4.08676
14.66	4.09696
14.67	4.10354
14.68	4.09334
14.69	4.09334
14.7	4.08873
14.71	4.07821
14.72	4.08939
14.73	4.09005
14.74	4.09433
14.75	4.08281
14.76	4.08906
14.77	4.09465
14.78	4.08742
14.79	4.09169
14.8	4.09794
14.81	4.09367
14.82	4.09334
14.83	4.09367
14.84	4.09334
14.85	4.09498
14.86	4.09137
14.87	4.08742
14.88	4.09926
14.89	4.0963
14.9	4.09202
14.91	4.08972
14.92	4.09498
14.93	4.08544
14.94	4.08018
14.95	4.10452
14.96	4.0986
14.97	4.09169
14.98	4.09301
14.99	4.08972
15	4.0963
15.01	4.08906
15.02	4.08972
15.03	4.10189
15.04	4.09663
15.05	4.09794
15.06	4.0884
15.07	4.08643
15.08	4.09202
15.09	4.08873
15.1	4.0861
15.11	4.08742
15.12	4.08479
15.13	4.08018
15.14	4.07294
15.15	4.08479
15.16	4.08051
15.17	4.07985
15.18	4.07689
15.19	4.07525
15.2	4.09137
15.21	4.0861
15.22	4.08643
15.23	4.0884
15.24	4.08084
15.25	4.08018
15.26	4.07558
15.27	4.08643
15.28	4.07393
15.29	4.08117
15.3	4.08248
15.31	4.08314
15.32	4.08018
15.33	4.07426
15.34	4.07426
15.35	4.07327
15.36	4.07196
15.37	4.08248
15.38	4.07327
15.39	4.07558
15.4	4.08215
15.41	4.0838
15.42	4.07821
15.43	4.07985
15.44	4.07097
15.45	4.07854
15.46	4.08018
15.47	4.07722
15.48	4.07097
15.49	4.0759
15.5	4.07097
15.51	4.08281
15.52	4.08051
15.53	4.07788
15.54	4.07886
15.55	4.08117
15.56	4.08117
15.57	4.07689
15.58	4.07854
15.59	4.07327
15.6	4.08347
15.61	4.07952
15.62	4.07261
15.63	4.07163
15.64	4.07919
15.65	4.07261
15.66	4.07558
15.67	4.09268
15.68	4.08248
15.69	4.07886
15.7	4.08117
15.71	4.07426
15.72	4.06965
15.73	4.07854
15.74	4.08215
15.75	4.08479
15.76	4.0759
15.77	4.07689
15.78	4.07492
15.79	4.07886
15.8	4.07558
15.81	4.06735
15.82	4.07525
15.83	4.07459
15.84	4.07261
15.85	4.07097
15.86	4.06669
15.87	4.06932
15.88	4.07426
15.89	4.06669
15.9	4.05715
15.91	4.05847
15.92	4.07163
15.93	4.07821
15.94	4.07196
15.95	4.07459
15.96	4.06735
15.97	4.06472
15.98	4.06669
15.99	4.06932
16	4.07097
16.01	4.06571
16.02	4.06406
16.03	4.06373
16.04	4.06669
16.05	4.06176
16.06	4.06571
16.07	4.06801
16.08	4.06242
16.09	4.06011
16.1	4.07229
16.11	4.06998
16.12	4.06176
16.13	4.05584
16.14	4.06275
16.15	4.05847
16.16	4.05584
16.17	4.06176
16.18	4.0565
16.19	4.06275
16.2	4.06439
16.21	4.06373
16.22	4.06834
16.23	4.06702
16.24	4.06636
16.25	4.06176
16.26	4.06209
16.27	4.06505
16.28	4.06735
16.29	4.06801
16.3	4.06636
16.31	4.07525
16.32	4.07097
16.33	4.07525
16.34	4.07393
16.35	4.07261
16.36	4.06505
16.37	4.06768
16.38	4.06965
16.39	4.06998
16.4	4.07229
16.41	4.06373
16.42	4.06011
16.43	4.06669
16.44	4.06373
16.45	4.06834
16.46	4.05913
16.47	4.0588
16.48	4.0634
16.49	4.06571
16.5	4.07854
16.51	4.07261
16.52	4.07294
16.53	4.06768
16.54	4.06143
16.55	4.06077
16.56	4.06406
16.57	4.05419
16.58	4.05979
16.59	4.05353
16.6	4.05386
16.61	4.06472
16.62	4.07294
16.63	4.0588
16.64	4.05913
16.65	4.06439
16.66	4.05913
16.67	4.0588
16.68	4.06176
16.69	4.05847
16.7	4.0588
16.71	4.06143
16.72	4.0634
16.73	4.06472
16.74	4.06505
16.75	4.06538
16.76	4.05682
16.77	4.06373
16.78	4.06571
16.79	4.06373
16.8	4.06636
16.81	4.07064
16.82	4.06275
16.83	4.05485
16.84	4.06011
16.85	4.06636
16.86	4.06998
16.87	4.05288
16.88	4.05847
16.89	4.06044
16.9	4.05847
16.91	4.05452
16.92	4.0588
16.93	4.05748
16.94	4.05913
16.95	4.0565
16.96	4.05452
16.97	4.06077
16.98	4.05419
16.99	4.06143
17	4.06669
17.01	4.05781
17.02	4.05781
17.03	4.05288
17.04	4.05189
17.05	4.05452
17.06	4.05847
17.07	4.05156
17.08	4.05551
17.09	4.05814
17.1	4.05682
17.11	4.05946
17.12	4.05781
17.13	4.05946
17.14	4.05847
17.15	4.05419
17.16	4.04432
17.17	4.04761
17.18	4.05485
17.19	4.05057
17.2	4.05123
17.21	4.05946
17.22	4.05847
17.23	4.05584
17.24	4.06044
17.25	4.05946
17.26	4.05682
17.27	4.05288
17.28	4.07064
17.29	4.05847
17.3	4.06669
17.31	4.05617
17.32	4.0463
17.33	4.04926
17.34	4.04926
17.35	4.04761
17.36	4.04301
17.37	4.05452
17.38	4.05255
17.39	4.04663
17.4	4.04893
17.41	4.06143
17.42	4.05156
17.43	4.04103
17.44	4.0509
17.45	4.05452
17.46	4.04794
17.47	4.04926
17.48	4.05485
17.49	4.04761
17.5	4.05288
17.51	4.04761
17.52	4.04268
17.53	4.04663
17.54	4.0565
17.55	4.04959
17.56	4.0486
17.57	4.03774
17.58	4.05189
17.59	4.05025
17.6	4.04959
17.61	4.04597
17.62	4.04301
17.63	4.04432
17.64	4.04992
17.65	4.05353
17.66	4.04531
17.67	4.04498
17.68	4.0509
17.69	4.05715
17.7	4.05057
17.71	4.04432
17.72	4.03643
17.73	4.04597
17.74	4.04465
17.75	4.04597
17.76	4.0384
17.77	4.04071
17.78	4.02919
17.79	4.04136
17.8	4.0565
17.81	4.04005
17.82	4.04794
17.83	4.04893
17.84	4.0486
17.85	4.04071
17.86	4.04465
17.87	4.03511
17.88	4.03676
17.89	4.044
17.9	4.0384
17.91	4.04597
17.92	4.04301
17.93	4.04696
17.94	4.04334
17.95	4.0384
17.96	4.04334
17.97	4.05551
17.98	4.05617
17.99	4.04531
18	4.05748
18.01	4.05156
18.02	4.05057
18.03	4.04071
18.04	4.05353
18.05	4.05156
18.06	4.04761
18.07	4.04992
18.08	4.0565
18.09	4.05321
18.1	4.0565
18.11	4.05682
18.12	4.04367
18.13	4.05255
18.14	4.05419
18.15	4.04268
18.16	4.04728
18.17	4.04235
18.18	4.04564
18.19	4.04926
18.2	4.04367
18.21	4.04038
18.22	4.03939
18.23	4.04761
18.24	4.02985
18.25	4.03676
18.26	4.03972
18.27	4.03446
18.28	4.03117
18.29	4.03544
18.3	4.03774
18.31	4.0384
18.32	4.03544
18.33	4.04498
18.34	4.03807
18.35	4.04498
18.36	4.02985
18.37	4.02919
18.38	4.03709
18.39	4.03577
18.4	4.03084
18.41	4.03939
18.42	4.03544
18.43	4.03709
18.44	4.03281
18.45	4.03117
18.46	4.04531
18.47	4.03347
18.48	4.03248
18.49	4.03906
18.5	4.03643
18.51	4.03577
18.52	4.03807
18.53	4.03215
18.54	4.04136
18.55	4.04827
18.56	4.04169
18.57	4.03709
18.58	4.03478
18.59	4.04992
18.6	4.04235
18.61	4.04103
18.62	4.04564
18.63	4.04136
18.64	4.05288
18.65	4.04268
18.66	4.03511
18.67	4.04498
18.68	4.05156
18.69	4.05156
18.7	4.04926
18.71	4.04334
18.72	4.04893
18.73	4.04893
18.74	4.04136
18.75	4.04268
18.76	4.04564
18.77	4.04301
18.78	4.03742
18.79	4.03446
18.8	4.03478
18.81	4.03643
18.82	4.03577
18.83	4.05452
18.84	4.04268
18.85	4.04169
18.86	4.04728
18.87	4.04136
18.88	4.03972
18.89	4.04301
18.9	4.03215
18.91	4.02755
18.92	4.02788
18.93	4.03149
18.94	4.03248
18.95	4.03051
18.96	4.03478
18.97	4.03544
18.98	4.0384
18.99	4.02755
19	4.03347
19.01	4.03478
19.02	4.03314
19.03	4.02722
19.04	4.03314
19.05	4.0463
19.06	4.03577
19.07	4.03314
19.08	4.03149
19.09	4.03577
19.1	4.02689
19.11	4.02656
19.12	4.02886
19.13	4.03511
19.14	4.04531
19.15	4.04334
19.16	4.03117
19.17	4.02821
19.18	4.01603
19.19	4.02524
19.2	4.02656
19.21	4.02031
19.22	4.01998
19.23	4.02722
19.24	4.03709
19.25	4.03643
19.26	4.03117
19.27	4.03544
19.28	4.03774
19.29	4.03544
19.3	4.02557
19.31	4.04268
19.32	4.04432
19.33	4.03709
19.34	4.0338
19.35	4.0338
19.36	4.03084
19.37	4.03873
19.38	4.03873
19.39	4.03807
19.4	4.04136
19.41	4.02755
19.42	4.03347
19.43	4.03018
19.44	4.03314
19.45	4.03577
19.46	4.02821
19.47	4.02492
19.48	4.03544
19.49	4.03709
19.5	4.03084
19.51	4.02722
19.52	4.0361
19.53	4.02524
19.54	4.02886
19.55	4.0338
19.56	4.04136
19.57	4.0384
19.58	4.03906
19.59	4.03873
19.6	4.01801
19.61	4.02524
19.62	4.04136
19.63	4.03511
19.64	4.02459
19.65	4.0384
19.66	4.03774
19.67	4.02886
19.68	4.02031
19.69	4.02689
19.7	4.04136
19.71	4.02623
19.72	4.02195
19.73	4.03544
19.74	4.03478
19.75	4.03084
19.76	4.03018
19.77	4.03215
19.78	4.03676
19.79	4.03544
19.8	4.03084
19.81	4.0213
19.82	4.03544
19.83	4.02853
19.84	4.03084
19.85	4.02294
19.86	4.02426
19.87	4.02755
19.88	4.03084
19.89	4.03807
19.9	4.0259
19.91	4.01834
19.92	4.02755
19.93	4.01932
19.94	4.03051
19.95	4.02656
19.96	4.02557
19.97	4.02492
19.98	4.02031
19.99	4.03182
20	4.02755
20.01	4.02195
20.02	4.01932
20.03	4.01274
20.04	4.02788
20.05	4.03281
20.06	4.03051
20.07	4.02163
20.08	4.02656
20.09	4.02985
20.1	4.02492
20.11	4.02031
20.12	4.02689
20.13	4.02821
20.14	4.02393
20.15	4.0338
20.16	4.03117
20.17	4.02064
20.18	4.02261
20.19	4.02656
20.2	4.03182
20.21	4.03281
20.22	4.02886
20.23	4.01603
20.24	4.02294
20.25	4.02393
20.26	4.01932
20.27	4.02788
20.28	4.03117
20.29	4.02952
20.3	4.02853
20.31	4.02031
20.32	4.0157
20.33	4.01669
20.34	4.02886
20.35	4.01735
20.36	4.02755
20.37	4.0259
20.38	4.01603
20.39	4.02557
20.4	4.03676
20.41	4.03742
20.42	4.0213
20.43	4.03478
20.44	4.02919
20.45	4.02985
20.46	4.0236
20.47	4.01867
20.48	4.02327
20.49	4.0259
20.5	4.01867
20.51	4.02689
20.52	4.02689
20.53	4.03544
20.54	4.02327
20.55	4.02064
20.56	4.02261
20.57	4.03084
20.58	4.03248
20.59	4.02656
20.6	4.02492
20.61	4.02393
20.62	4.0213
20.63	4.02985
20.64	4.0213
20.65	4.02459
20.66	4.03281
20.67	4.02623
20.68	4.02097
20.69	4.02459
20.7	4.02886
20.71	4.03117
20.72	4.01669
20.73	4.02623
20.74	4.02886
20.75	4.02656
20.76	4.01603
20.77	4.01867
20.78	4.02064
20.79	4.0236
20.8	4.02557
20.81	4.01768
20.82	4.00913
20.83	4.02393
20.84	4.02689
20.85	4.01538
20.86	4.01439
20.87	4.02327
20.88	4.01899
20.89	4.02689
20.9	4.02755
20.91	4.01735
20.92	4.01932
20.93	4.0134
20.94	4.00748
20.95	4.01768
20.96	4.01932
20.97	4.01538
20.98	4.02195
20.99	4.01406
21	4.01867
21.01	4.02722
21.02	4.02952
21.03	4.02261
21.04	4.02952
21.05	4.0236
21.06	4.02557
21.07	4.01867
21.08	4.01505
21.09	4.01406
21.1	4.01899
21.11	4.01834
21.12	4.02459
21.13	4.0213
21.14	4.0213
21.15	4.01735
21.16	4.01274
21.17	4.01965
21.18	4.01636
21.19	4.01242
21.2	4.01735
21.21	4.01472
21.22	4.01669
21.23	4.01636
21.24	4.00945
21.25	4.01932
21.26	4.01801
21.27	4.01965
21.28	4.02031
21.29	4.01768
21.3	4.01669
21.31	4.02163
21.32	4.02656
21.33	4.01373
21.34	4.01636
21.35	4.02228
21.36	4.0213
21.37	4.01307
21.38	4.00847
21.39	4.01472
21.4	4.02163
21.41	4.01505
21.42	4.01011
21.43	4.01209
21.44	4.01242
21.45	4.01077
21.46	4.01965
21.47	4.02064
21.48	4.01242
21.49	4.00255
21.5	4.00288
21.51	4.01439
21.52	4.01077
21.53	4.00814
21.54	4.00222
21.55	4.00024
21.56	4.02426
21.57	4.00715
21.58	4.00748
21.59	4.01439
21.6	4.01834
21.61	4.01274
21.62	4.00156
21.63	4.01077
21.64	4.01768
21.65	4.02064
21.66	4.01669
21.67	4.0157
21.68	4.00913
21.69	4.00781
21.7	4.01768
21.71	4.01538
21.72	4.02031
21.73	4.02097
21.74	4.01603
21.75	4.0111
21.76	4.01307
21.77	4.01472
21.78	4.01274
21.79	4.01274
21.8	4.01373
21.81	4.01636
21.82	4.01209
21.83	4.01077
21.84	4.00485
21.85	4.01011
21.86	4.02195
21.87	4.01373
21.88	4.00748
21.89	4.00913
21.9	4.01932
21.91	4.01011
21.92	4.01603
21.93	4.02393
21.94	4.01702
21.95	4.01702
21.96	4.01472
21.97	4.00814
21.98	4.00748
21.99	4.01044
22	4.00945
22.01	4.01307
22.02	4.00978
22.03	4.00814
22.04	4.0111
22.05	4.00847
22.06	4.01932
22.07	4.01373
22.08	4.01439
22.09	4.01143
22.1	4.00649
22.11	4.00386
22.12	3.99959
22.13	4.01176
22.14	4.01505
22.15	4.00518
22.16	4.0111
22.17	4.00485
22.18	4.00715
22.19	4.01472
22.2	4.01143
22.21	4.01636
22.22	4.00781
22.23	4.00913
22.24	4.00715
22.25	4.00419
22.26	4.01209
22.27	4.00353
22.28	4.00945
22.29	4.01143
22.3	4.01406
22.31	3.99926
22.32	4.00814
22.33	4.01669
22.34	4.01472
22.35	4.01702
22.36	4.01077
22.37	4.00715
22.38	4.01373
22.39	4.01669
22.4	4.01077
22.41	4.00386
22.42	4.00682
22.43	4.01242
22.44	4.02064
22.45	4.01439
22.46	4.01603
22.47	4.02097
22.48	4.01702
22.49	4.01011
22.5	4.02327
22.51	4.02426
22.52	4.01801
22.53	4.01735
22.54	4.01801
22.55	4.01373
22.56	4.0032
22.57	4.0134
22.58	4.00847
22.59	4.00288
22.6	4.00682
22.61	4.01899
22.62	4.02031
22.63	4.01373
22.64	3.99893
22.65	3.99794
22.66	4.00978
22.67	4.00945
22.68	4.00847
22.69	4.01044
22.7	4.02327
22.71	4.00945
22.72	4.00189
22.73	4.00189
22.74	4.01274
22.75	4.00386
22.76	3.99893
22.77	4.00616
22.78	4.00715
22.79	4.00485
22.8	3.99959
22.81	4.00682
22.82	4.00847
22.83	4.00748
22.84	3.99695
22.85	4.00386
22.86	4.01406
22.87	4.0088
22.88	3.99663
22.89	4.00781
22.9	3.9986
22.91	4.00584
22.92	4.00255
22.93	4.00748
22.94	4.00649
22.95	4.01044
22.96	4.01044
22.97	3.99959
22.98	4.00123
22.99	4.00419
23	3.99893
23.01	3.99827
23.02	4.00781
23.03	3.99794
23.04	4.01899
23.05	4.01406
23.06	4.01899
23.07	4.01834
23.08	4.00748
23.09	4.00781
23.1	4.00353
23.11	4.00123
23.12	4.00978
23.13	3.99959
23.14	4.00485
23.15	4.01538
23.16	4.00584
23.17	4.00288
23.18	4.00715
23.19	4.00551
23.2	4.00781
23.21	4.01011
23.22	4.01867
23.23	4.01965
23.24	4.01439
23.25	4.0088
23.26	4.01932
23.27	4.01768
23.28	4.00485
23.29	4.01735
23.3	4.01274
23.31	4.01505
23.32	4.01143
23.33	4.01636
23.34	4.0157
23.35	4.01834
23.36	4.01242
23.37	4.0111
23.38	4.01011
23.39	4.01472
23.4	4.0134
23.41	4.00847
23.42	4.02097
23.43	4.0157
23.44	4.00551
23.45	4.00518
23.46	4.02031
23.47	4.01867
23.48	4.0157
23.49	4.00222
23.5	4.01965
23.51	4.02163
23.52	4.00551
23.53	4.00847
23.54	4.01439
23.55	4.00452
23.56	3.99926
23.57	3.9963
23.58	4.01274
23.59	4.00452
23.6	4.0111
23.61	4.01209
23.62	4.00913
23.63	3.99926
23.64	4.01307
23.65	4.00452
23.66	4.00156
23.67	4.01143
23.68	4.00189
23.69	4.00156
23.7	4.00024
23.71	3.99926
23.72	4.00649
23.73	4.00649
23.74	4.0088
23.75	4.00814
23.76	4.01077
23.77	4.00386
23.78	4.01011
23.79	3.99827
23.8	4.00847
23.81	4.00189
23.82	4.00682
23.83	4.01307
23.84	4.00715
23.85	4.00682
23.86	3.9907
23.87	4.00156
23.88	3.99169
23.89	3.99827
23.9	3.99761
23.91	3.9986
23.92	3.98906
23.93	4.00123
23.94	4.00419
23.95	3.99531
23.96	3.99136
23.97	3.99301
23.98	4.00123
23.99	4.00255
24	4.00123
24.01	3.99991
24.02	4.00584
24.03	4.00419
24.04	3.98544
24.05	3.99399
24.06	3.99794
24.07	3.99564
24.08	4.00518
24.09	3.9907
24.1	3.99663
24.11	3.99926
24.12	3.99597
24.13	3.99728
24.14	3.99334
24.15	3.99959
24.16	3.9963
24.17	3.99366
24.18	3.99399
24.19	3.98972
24.2	3.99827
24.21	3.99728
24.22	4.00189
24.23	3.99761
24.24	3.99005
24.25	3.99366
24.26	3.99597
24.27	3.99432
24.28	3.98906
24.29	3.99564
24.3	4.00189
24.31	3.99695
24.32	3.99827
24.33	3.99695
24.34	3.99663
24.35	3.99366
24.36	3.97656
24.37	3.99794
24.38	4.00123
24.39	4.00024
24.4	3.99531
24.41	3.9986
24.42	3.99926
24.43	3.99366
24.44	3.99531
24.45	3.99761
24.46	4.00255
24.47	4.00781
24.48	3.99103
24.49	3.99038
24.5	3.99301
24.51	3.9907
24.52	3.98873
24.53	3.99038
24.54	3.99695
24.55	3.99399
24.56	3.99202
24.57	3.99465
24.58	3.99597
24.59	3.99038
24.6	3.99827
24.61	3.99038
24.62	3.99334
24.63	3.98939
24.64	3.99597
24.65	3.99827
24.66	3.99202
24.67	3.99926
24.68	3.99695
24.69	3.99498
24.7	4.00123
24.71	4.00189
24.72	3.99334
24.73	3.99728
24.74	3.99926
24.75	3.98873
24.76	3.99959
24.77	3.9986
24.78	4.00584
24.79	3.99366
24.8	3.98873
24.81	4.00024
24.82	4.00386
24.83	3.99366
24.84	3.98873
24.85	3.98347
24.86	4.00353
24.87	4.01274
24.88	3.99597
24.89	3.99235
24.9	3.99531
24.91	4.00057
24.92	4.00584
24.93	3.99005
24.94	3.99399
24.95	3.99531
24.96	3.99235
24.97	3.99366
24.98	3.99959
24.99	3.9907
25	3.9838
25.01	3.98676
25.02	3.98018
25.03	3.99268
25.04	3.9907
25.05	3.98939
25.06	4.00156
25.07	3.99761
25.08	4.00222
25.09	3.99334
25.1	3.99959
25.11	3.99728
25.12	3.99465
25.13	3.98577
25.14	3.99531
25.15	3.99893
25.16	3.99991
25.17	3.98182
25.18	3.98939
25.19	3.9963
25.2	4.00419
25.21	3.98412
25.22	3.99136
25.23	3.99366
25.24	3.98741
25.25	3.99498
25.26	3.99366
25.27	3.98215
25.28	3.97524
25.29	3.98741
25.3	3.99564
25.31	3.99366
25.32	3.99235
25.33	3.99761
25.34	4.00057
25.35	3.98215
25.36	3.98709
25.37	3.98873
25.38	3.99465
25.39	3.99465
25.4	3.99827
25.41	3.99926
25.42	3.98741
25.43	4.00123
25.44	3.98807
25.45	3.98511
25.46	3.98873
25.47	3.98807
25.48	3.99301
25.49	3.99169
25.5	3.99202
25.51	4.00748
25.52	3.99005
25.53	3.98774
25.54	3.9963
25.55	3.99465
25.56	3.99597
25.57	3.99926
25.58	4.00024
25.59	4.0032
25.6	3.99695
25.61	3.99268
25.62	3.99366
25.63	3.99893
25.64	3.99465
25.65	3.99366
25.66	3.99005
25.67	3.99827
25.68	3.99959
25.69	4.00024
25.7	3.99728
25.71	3.99432
25.72	3.98741
25.73	3.98709
25.74	3.99202
25.75	3.99893
25.76	3.99038
25.77	3.99399
25.78	3.99334
25.79	3.99432
25.8	3.98709
25.81	3.98544
25.82	3.98741
25.83	3.99235
25.84	3.99334
25.85	3.99136
25.86	3.9963
25.87	3.99695
25.88	3.99893
25.89	3.99202
25.9	3.98676
25.91	3.99268
25.92	3.99794
25.93	3.9963
25.94	3.98544
25.95	3.98577
25.96	3.98807
25.97	3.99301
25.98	3.9861
25.99	3.99268
26	3.98544
26.01	3.9884
26.02	3.98511
26.03	3.98215
26.04	3.97853
26.05	3.98544
26.06	3.99268
26.07	3.98939
26.08	3.99893
26.09	3.99498
26.1	3.98281
26.11	3.9884
26.12	3.98643
26.13	3.9838
26.14	3.98478
26.15	3.99301
26.16	3.9986
26.17	3.99103
26.18	3.9838
26.19	3.98939
26.2	3.99038
26.21	3.98149
26.22	3.9861
26.23	3.99136
26.24	3.98248
26.25	3.99761
26.26	3.99498
26.27	3.98939
26.28	3.99991
26.29	3.98478
26.3	3.99235
26.31	3.98709
26.32	3.99169
26.33	3.98281
26.34	3.98215
26.35	3.98939
26.36	3.99169
26.37	3.99301
26.38	3.99531
26.39	3.99301
26.4	3.99761
26.41	3.99301
26.42	3.98577
26.43	3.99531
26.44	3.99038
26.45	3.99136
26.46	3.99399
26.47	3.99005
26.48	3.98248
26.49	3.98741
26.5	3.99695
26.51	3.98939
26.52	3.98972
26.53	3.98116
26.54	3.97722
26.55	3.98676
26.56	3.99301
26.57	3.99597
26.58	3.99663
26.59	3.99169
26.6	3.98445
26.61	3.98445
26.62	3.9884
26.63	3.98248
26.64	3.98676
26.65	3.98577
26.66	3.99136
26.67	3.99268
26.68	3.97985
26.69	3.98511
26.7	3.98709
26.71	3.9838
26.72	3.97491
26.73	3.98577
26.74	3.98248
26.75	3.98577
26.76	3.98412
26.77	3.98478
26.78	3.98445
26.79	3.98182
26.8	3.98051
26.81	3.98412
26.82	3.98906
26.83	3.98676
26.84	3.9782
26.85	3.98774
26.86	3.97853
26.87	3.9861
26.88	3.9884
26.89	3.98741
26.9	3.9907
26.91	3.98051
26.92	3.98544
26.93	3.98709
26.94	3.99432
26.95	3.98741
26.96	3.97524
26.97	3.99301
26.98	3.9884
26.99	3.9884
27	3.98281
27.01	3.98972
27.02	3.99728
27.03	3.98906
27.04	3.98807
27.05	3.97787
27.06	3.97886
27.07	3.98906
27.08	3.98445
27.09	3.99005
27.1	3.99038
27.11	3.99268
27.12	3.9861
27.13	3.99038
27.14	3.99564
27.15	3.98445
27.16	3.98182
27.17	3.98774
27.18	3.98577
27.19	3.98544
27.2	3.98215
27.21	3.98544
27.22	3.97524
27.23	3.97919
27.24	3.97755
27.25	3.97195
27.26	3.98314
27.27	3.97294
27.28	3.98412
27.29	3.98741
27.3	3.9861
27.31	3.98577
27.32	3.98939
27.33	3.98676
27.34	3.98051
27.35	3.97755
27.36	3.9736
27.37	3.97097
27.38	3.98215
27.39	3.98412
27.4	3.98281
27.41	3.98807
27.42	3.98807
27.43	3.98577
27.44	3.98939
27.45	3.99103
27.46	3.99366
27.47	3.99432
27.48	3.99005
27.49	3.98347
27.5	3.97689
27.51	3.99103
27.52	3.98347
27.53	3.98544
27.54	3.99169
27.55	3.99334
27.56	3.98906
27.57	3.98741
27.58	3.98478
27.59	3.98807
27.6	3.9838
27.61	3.98577
27.62	3.98972
27.63	3.98248
27.64	3.98149
27.65	3.98972
27.66	3.98084
27.67	3.98347
27.68	3.99169
27.69	3.97886
27.7	3.98511
27.71	3.98676
27.72	3.98248
27.73	3.98676
27.74	3.98676
27.75	3.98709
27.76	3.99432
27.77	3.97919
27.78	3.97294
27.79	3.96241
27.8	3.97261
27.81	3.97853
27.82	3.98116
27.83	3.98544
27.84	3.98149
27.85	3.97985
27.86	3.98051
27.87	3.98478
27.88	3.9861
27.89	3.97985
27.9	3.98084
27.91	3.99301
27.92	3.97755
27.93	3.97853
27.94	3.98445
27.95	3.98051
27.96	3.97985
27.97	3.98149
27.98	3.98478
27.99	3.98643
28	3.9759
28.01	3.98314
28.02	3.98347
28.03	3.9884
28.04	3.99169
28.05	3.98774
28.06	3.98215
28.07	3.97853
28.08	3.9861
28.09	3.98544
28.1	3.98281
28.11	3.98544
28.12	3.98643
28.13	3.97985
28.14	3.98149
28.15	3.98972
28.16	3.98972
28.17	3.98577
28.18	3.98577
28.19	3.98215
28.2	3.98873
28.21	3.99432
28.22	3.98873
28.23	3.99169
28.24	3.97755
28.25	3.98314
28.26	3.99038
28.27	3.99038
28.28	3.98314
28.29	3.97459
28.3	3.97689
28.31	3.97294
28.32	3.98347
28.33	3.96899
28.34	3.96965
28.35	3.98741
28.36	3.97426
28.37	3.97722
28.38	3.9736
28.39	3.97294
28.4	3.97031
28.41	3.97228
28.42	3.97787
28.43	3.97755
28.44	3.97195
28.45	3.98182
28.46	3.98577
28.47	3.9861
28.48	3.98347
28.49	3.97787
28.5	3.97919
28.51	3.98544
28.52	3.97952
28.53	3.97952
28.54	3.97886
28.55	3.97294
28.56	3.9782
28.57	3.98939
28.58	3.97689
28.59	3.98445
28.6	3.99169
28.61	3.97722
28.62	3.97228
28.63	3.98412
28.64	3.98577
28.65	3.99334
28.66	3.97689
28.67	3.98215
28.68	3.99038
28.69	3.99038
28.7	3.98149
28.71	3.98412
28.72	3.98116
28.73	3.98182
28.74	3.98544
28.75	3.99268
28.76	3.98577
28.77	3.9838
28.78	3.98018
28.79	3.98939
28.8	3.98741
28.81	3.98873
28.82	3.98972
28.83	3.98741
28.84	3.99103
28.85	3.98972
28.86	3.99235
28.87	3.99136
28.88	3.98577
28.89	3.98544
28.9	3.98774
28.91	3.99399
28.92	3.99366
28.93	3.98018
28.94	3.97195
28.95	3.98478
28.96	3.9759
28.97	3.97919
28.98	3.96998
28.99	3.98577
29	3.99761
29.01	3.97689
29.02	3.97162
29.03	3.97656
29.04	3.98248
29.05	3.98774
29.06	3.98116
29.07	3.98445
29.08	3.98676
29.09	3.9838
29.1	3.97097
29.11	3.9782
29.12	3.97755
29.13	3.96801
29.14	3.9759
29.15	3.97294
29.16	3.97426
29.17	3.97426
29.18	3.96735
29.19	3.96768
29.2	3.97393
29.21	3.97064
29.22	3.96899
29.23	3.98116
29.24	3.96603
29.25	3.96768
29.26	3.96768
29.27	3.9861
29.28	3.97491
29.29	3.96801
29.3	3.97261
29.31	3.97787
29.32	3.96603
29.33	3.97327
29.34	3.97524
29.35	3.97031
29.36	3.97195
29.37	3.96998
29.38	3.98643
29.39	3.98084
29.4	3.96899
29.41	3.96472
29.42	3.96636
29.43	3.97031
29.44	3.97162
29.45	3.9759
29.46	3.97064
29.47	3.96899
29.48	3.97524
29.49	3.9759
29.5	3.97722
29.51	3.96537
29.52	3.96439
29.53	3.97853
29.54	3.97261
29.55	3.97064
29.56	3.97228
29.57	3.9713
29.58	3.97689
29.59	3.97755
29.6	3.97656
29.61	3.9759
29.62	3.96537
29.63	3.97656
29.64	3.9736
29.65	3.97327
29.66	3.98018
29.67	3.97755
29.68	3.97985
29.69	3.97327
29.7	3.97097
29.71	3.96965
29.72	3.97064
29.73	3.96702
29.74	3.96472
29.75	3.96472
29.76	3.96965
29.77	3.98347
29.78	3.97228
29.79	3.97195
29.8	3.97195
29.81	3.96702
29.82	3.97393
29.83	3.97228
29.84	3.97327
29.85	3.96932
29.86	3.9759
29.87	3.96636
29.88	3.97623
29.89	3.96735
29.9	3.97755
29.91	3.96439
29.92	3.97031
29.93	3.97557
29.94	3.97787
29.95	3.97031
29.96	3.9713
29.97	3.96866
29.98	3.9736
29.99	3.97294
30	3.97162
