"BIO-KINE ASCII FILE"
"_COMMENT"	"MOS-500 Spectrometer"
"_COMMENT"	"Kinetics measurement"
"_COMMENT"	"Y Unit : Volt,  X Unit : s"
"_COMMENT"	"Excitation wavelength : 380 nm"
"_COMMENT"	"Fentes bandwidth =  1 nm"
"_COMMENT"	"HV= 1000V"
"_COMMENT"	"Timebase  1 =  .01 s   3001 pts"
"_SFM"	"SFM-400 /S  Advanced mode"
"_SFM"	"Ratio : S1: 2.5, S2: 0, S3: 0, S4: 1"
"_SFM"	"Content : S1: , S2: , S3: , S4:"
"_SFM"	"Concentration : S1: , S2: , S3: , S4:"
"_SFM"	"Total volume : 209 µl  Flow : 3.5 mL/s"
"_SFM"	"Acquisition start :  10 ms before stop"
"_SFM"	"cuve=FC-15, s1=10 ml , s2=10 ml , s3=10 ml , s4=1.9 ml"
"_UNITX"	"s"
"_UNITY"	"Volt"
"_DELTAX"	0
"_DATA"
1e-300	2.61533
0.01	2.60118
0.02	2.62619
0.03	2.64921
0.04	2.66336
0.05	2.69987
0.06	2.70711
0.07	2.69296
0.08	2.74691
0.09	2.75448
0.1	2.74165
0.11	2.77849
0.12	2.79757
0.13	2.7502
0.14	2.76336
0.15	2.76698
0.16	2.77948
0.17	2.79395
0.18	2.82257
0.19	2.78869
0.2	2.78474
0.21	2.81139
0.22	2.79264
0.23	2.81928
0.24	2.82257
0.25	2.79165
0.26	2.82389
0.27	2.80744
0.28	2.79856
0.29	2.80218
0.3	2.78277
0.31	2.79856
0.32	2.7979
0.33	2.80481
0.34	2.81731
0.35	2.7956
0.36	2.80909
0.37	2.79889
0.38	2.82619
0.39	2.8104
0.4	2.81007
0.41	2.80481
0.42	2.80678
0.43	2.76862
0.44	2.77586
0.45	2.80547
0.46	2.79132
0.47	2.83178
0.48	2.79034
0.49	2.80613
0.5	2.81271
0.51	2.82422
0.52	2.85021
0.53	2.81106
0.54	2.81632
0.55	2.81764
0.56	2.79034
0.57	2.80382
0.58	2.81632
0.59	2.82652
0.6	2.8354
0.61	2.78869
0.62	2.78441
0.63	2.77882
0.64	2.78705
0.65	2.8104
0.66	2.82817
0.67	2.82948
0.68	2.82586
0.69	2.81336
0.7	2.7956
0.71	2.80185
0.72	2.79692
0.73	2.77652
0.74	2.79264
0.75	2.79593
0.76	2.79297
0.77	2.80185
0.78	2.79264
0.79	2.80349
0.8	2.7683
0.81	2.76961
0.82	2.77619
0.83	2.78343
0.84	2.79461
0.85	2.79593
0.86	2.81336
0.87	2.79988
0.88	2.79988
0.89	2.79626
0.9	2.79264
0.91	2.81534
0.92	2.75711
0.93	2.81632
0.94	2.81698
0.95	2.81863
0.96	2.78902
0.97	2.81567
0.98	2.7956
0.99	2.80284
1	2.80777
1.01	2.79922
1.02	2.81435
1.03	2.80086
1.04	2.77356
1.05	2.80053
1.06	2.81994
1.07	2.78705
1.08	2.79297
1.09	2.79922
1.1	2.8285
1.11	2.80711
1.12	2.79659
1.13	2.78836
1.14	2.80514
1.15	2.80119
1.16	2.78672
1.17	2.78869
1.18	2.77816
1.19	2.8081
1.2	2.80744
1.21	2.8104
1.22	2.80415
1.23	2.78639
1.24	2.78409
1.25	2.78507
1.26	2.81402
1.27	2.83771
1.28	2.80547
1.29	2.81106
1.3	2.82093
1.31	2.79955
1.32	2.79593
1.33	2.77685
1.34	2.7729
1.35	2.7979
1.36	2.81731
1.37	2.80086
1.38	2.81139
1.39	2.79988
1.4	2.78606
1.41	2.75974
1.42	2.77159
1.43	2.80251
1.44	2.7706
1.45	2.78507
1.46	2.76007
1.47	2.76369
1.48	2.79297
1.49	2.80481
1.5	2.81336
1.51	2.79099
1.52	2.79066
1.53	2.78672
1.54	2.80317
1.55	2.81994
1.56	2.80086
1.57	2.78211
1.58	2.79692
1.59	2.80645
1.6	2.8206
1.61	2.81994
1.62	2.77389
1.63	2.79527
1.64	2.83277
1.65	2.78145
1.66	2.79527
1.67	2.79395
1.68	2.78244
1.69	2.83211
1.7	2.80547
1.71	2.78968
1.72	2.80744
1.73	2.78376
1.74	2.78441
1.75	2.77751
1.76	2.79856
1.77	2.7933
1.78	2.78672
1.79	2.82192
1.8	2.78474
1.81	2.77816
1.82	2.77553
1.83	2.7752
1.84	2.78968
1.85	2.80613
1.86	2.76895
1.87	2.77882
1.88	2.81896
1.89	2.80284
1.9	2.77455
1.91	2.76534
1.92	2.77093
1.93	2.82389
1.94	2.80152
1.95	2.80645
1.96	2.78968
1.97	2.79692
1.98	2.78474
1.99	2.77191
2	2.7808
2.01	2.79724
2.02	2.78113
2.03	2.78507
2.04	2.8002
2.05	2.75744
2.06	2.78803
2.07	2.76797
2.08	2.76862
2.09	2.75908
2.1	2.81106
2.11	2.78014
2.12	2.78376
2.13	2.80711
2.14	2.77027
2.15	2.76007
2.16	2.7604
2.17	2.78409
2.18	2.78507
2.19	2.78507
2.2	2.77553
2.21	2.77093
2.22	2.79889
2.23	2.77981
2.24	2.74198
2.25	2.77389
2.26	2.77586
2.27	2.74395
2.28	2.76172
2.29	2.75843
2.3	2.7933
2.31	2.79198
2.32	2.78672
2.33	2.76534
2.34	2.79165
2.35	2.75251
2.36	2.76501
2.37	2.76632
2.38	2.78474
2.39	2.77389
2.4	2.7831
2.41	2.74395
2.42	2.75941
2.43	2.7706
2.44	2.78014
2.45	2.76764
2.46	2.77191
2.47	2.7831
2.48	2.76007
2.49	2.80448
2.5	2.78869
2.51	2.80876
2.52	2.77784
2.53	2.72191
2.54	2.76468
2.55	2.79034
2.56	2.78145
2.57	2.78178
2.58	2.77685
2.59	2.77553
2.6	2.76599
2.61	2.77619
2.62	2.77718
2.63	2.77389
2.64	2.79001
2.65	2.79066
2.66	2.79165
2.67	2.74955
2.68	2.78803
2.69	2.80349
2.7	2.76994
2.71	2.77389
2.72	2.76468
2.73	2.7683
2.74	2.75974
2.75	2.77816
2.76	2.75218
2.77	2.74889
2.78	2.76665
2.79	2.77323
2.8	2.77553
2.81	2.78014
2.82	2.76632
2.83	2.76007
2.84	2.77948
2.85	2.78902
2.86	2.76928
2.87	2.78738
2.88	2.7683
2.89	2.78211
2.9	2.76599
2.91	2.77652
2.92	2.76961
2.93	2.74099
2.94	2.7752
2.95	2.7831
2.96	2.76632
2.97	2.76665
2.98	2.75777
2.99	2.77718
3	2.77455
3.01	2.76566
3.02	2.76961
3.03	2.75119
3.04	2.74856
3.05	2.80218
3.06	2.76336
3.07	2.74297
3.08	2.77784
3.09	2.8058
3.1	2.77422
3.11	2.74626
3.12	2.75152
3.13	2.75843
3.14	2.76731
3.15	2.8058
3.16	2.77751
3.17	2.76501
3.18	2.79132
3.19	2.76205
3.2	2.79001
3.21	2.78145
3.22	2.76764
3.23	2.77389
3.24	2.76862
3.25	2.76468
3.26	2.75843
3.27	2.77093
3.28	2.75974
3.29	2.77718
3.3	2.80909
3.31	2.78639
3.32	2.75711
3.33	2.77718
3.34	2.80481
3.35	2.79428
3.36	2.77784
3.37	2.76435
3.38	2.79066
3.39	2.77257
3.4	2.77586
3.41	2.77816
3.42	2.78672
3.43	2.76205
3.44	2.74428
3.45	2.74461
3.46	2.77257
3.47	2.76073
3.48	2.79198
3.49	2.76237
3.5	2.76566
3.51	2.75382
3.52	2.75382
3.53	2.78869
3.54	2.75908
3.55	2.79988
3.56	2.7752
3.57	2.77323
3.58	2.77784
3.59	2.78178
3.6	2.79001
3.61	2.76501
3.62	2.75086
3.63	2.77652
3.64	2.76928
3.65	2.76599
3.66	2.77619
3.67	2.74889
3.68	2.76665
3.69	2.76895
3.7	2.76599
3.71	2.78244
3.72	2.75382
3.73	2.7729
3.74	2.75086
3.75	2.74428
3.76	2.74757
3.77	2.77553
3.78	2.77126
3.79	2.7502
3.8	2.74691
3.81	2.7558
3.82	2.78145
3.83	2.76928
3.84	2.75481
3.85	2.7706
3.86	2.77027
3.87	2.77323
3.88	2.76665
3.89	2.73606
3.9	2.74856
3.91	2.71566
3.92	2.7581
3.93	2.74889
3.94	2.74231
3.95	2.7752
3.96	2.76435
3.97	2.75415
3.98	2.74955
3.99	2.78211
4	2.77981
4.01	2.76797
4.02	2.76698
4.03	2.73112
4.04	2.76566
4.05	2.77126
4.06	2.72948
4.07	2.77257
4.08	2.76172
4.09	2.75547
4.1	2.77257
4.11	2.76106
4.12	2.75777
4.13	2.77422
4.14	2.77093
4.15	2.73836
4.16	2.72685
4.17	2.74362
4.18	2.74066
4.19	2.75448
4.2	2.74198
4.21	2.77093
4.22	2.75086
4.23	2.78836
4.24	2.75777
4.25	2.75711
4.26	2.76534
4.27	2.7604
4.28	2.76402
4.29	2.75218
4.3	2.72816
4.31	2.7456
4.32	2.76862
4.33	2.77323
4.34	2.75251
4.35	2.74165
4.36	2.75415
4.37	2.72454
4.38	2.75974
4.39	2.75119
4.4	2.76237
4.41	2.77586
4.42	2.75711
4.43	2.74165
4.44	2.75382
4.45	2.74955
4.46	2.72422
4.47	2.70185
4.48	2.73145
4.49	2.77751
4.5	2.74297
4.51	2.75876
4.52	2.7729
4.53	2.73474
4.54	2.75941
4.55	2.72158
4.56	2.75218
4.57	2.76303
4.58	2.74329
4.59	2.73474
4.6	2.75678
4.61	2.74033
4.62	2.74987
4.63	2.74428
4.64	2.7627
4.65	2.74033
4.66	2.75119
4.67	2.72849
4.68	2.70875
4.69	2.74757
4.7	2.77191
4.71	2.75711
4.72	2.7558
4.73	2.76237
4.74	2.74889
4.75	2.74362
4.76	2.76994
4.77	2.76402
4.78	2.75316
4.79	2.73474
4.8	2.74329
4.81	2.75086
4.82	2.74461
4.83	2.72915
4.84	2.72224
4.85	2.7581
4.86	2.76698
4.87	2.7206
4.88	2.74987
4.89	2.7558
4.9	2.75053
4.91	2.77619
4.92	2.73507
4.93	2.73474
4.94	2.7558
4.95	2.75185
4.96	2.75382
4.97	2.77126
4.98	2.75185
4.99	2.73902
5	2.72849
5.01	2.74033
5.02	2.74001
5.03	2.75941
5.04	2.74987
5.05	2.78113
5.06	2.77422
5.07	2.7502
5.08	2.74099
5.09	2.73672
5.1	2.73376
5.11	2.78507
5.12	2.74297
5.13	2.74593
5.14	2.7729
5.15	2.75941
5.16	2.7683
5.17	2.79231
5.18	2.77422
5.19	2.7502
5.2	2.75678
5.21	2.76501
5.22	2.75908
5.23	2.75974
5.24	2.78244
5.25	2.72553
5.26	2.72553
5.27	2.73047
5.28	2.76961
5.29	2.75349
5.3	2.72191
5.31	2.73441
5.32	2.75415
5.33	2.77323
5.34	2.75744
5.35	2.76172
5.36	2.77455
5.37	2.73079
5.38	2.75283
5.39	2.75185
5.4	2.73441
5.41	2.74955
5.42	2.74757
5.43	2.7354
5.44	2.74527
5.45	2.74033
5.46	2.78441
5.47	2.7808
5.48	2.71862
5.49	2.71237
5.5	2.74856
5.51	2.74856
5.52	2.73079
5.53	2.7275
5.54	2.70843
5.55	2.74856
5.56	2.74626
5.57	2.73803
5.58	2.74231
5.59	2.71961
5.6	2.74955
5.61	2.74231
5.62	2.75448
5.63	2.72619
5.64	2.74626
5.65	2.71599
5.66	2.7229
5.67	2.73606
5.68	2.73014
5.69	2.75612
5.7	2.70185
5.71	2.73737
5.72	2.73014
5.73	2.7456
5.74	2.70744
5.75	2.75119
5.76	2.76007
5.77	2.74231
5.78	2.7377
5.79	2.73178
5.8	2.72487
5.81	2.73902
5.82	2.74823
5.83	2.73639
5.84	2.74823
5.85	2.75053
5.86	2.7377
5.87	2.74395
5.88	2.74889
5.89	2.73441
5.9	2.71171
5.91	2.75152
5.92	2.77191
5.93	2.74297
5.94	2.76007
5.95	2.76369
5.96	2.74099
5.97	2.74001
5.98	2.73376
5.99	2.75481
6	2.76566
6.01	2.74757
6.02	2.74823
6.03	2.7502
6.04	2.75547
6.05	2.78474
6.06	2.74658
6.07	2.73014
6.08	2.76139
6.09	2.76237
6.1	2.74297
6.11	2.77191
6.12	2.7581
6.13	2.73737
6.14	2.74066
6.15	2.74527
6.16	2.73244
6.17	2.72718
6.18	2.72454
6.19	2.7229
6.2	2.7206
6.21	2.73112
6.22	2.75612
6.23	2.73079
6.24	2.74626
6.25	2.73244
6.26	2.72718
6.27	2.75448
6.28	2.73047
6.29	2.76106
6.3	2.7558
6.31	2.73376
6.32	2.74428
6.33	2.73902
6.34	2.72816
6.35	2.74658
6.36	2.75448
6.37	2.76139
6.38	2.74757
6.39	2.74198
6.4	2.74329
6.41	2.74691
6.42	2.7354
6.43	2.73014
6.44	2.75119
6.45	2.74856
6.46	2.73902
6.47	2.73178
6.48	2.75283
6.49	2.75382
6.5	2.75382
6.51	2.76895
6.52	2.72652
6.53	2.70514
6.54	2.73672
6.55	2.73112
6.56	2.73047
6.57	2.74198
6.58	2.74231
6.59	2.71862
6.6	2.75645
6.61	2.73112
6.62	2.71895
6.63	2.72257
6.64	2.7229
6.65	2.77159
6.66	2.75843
6.67	2.74658
6.68	2.76303
6.69	2.75382
6.7	2.72257
6.71	2.715
6.72	2.71829
6.73	2.72981
6.74	2.73014
6.75	2.76764
6.76	2.75514
6.77	2.72685
6.78	2.73902
6.79	2.7558
6.8	2.72882
6.81	2.7729
6.82	2.77389
6.83	2.71994
6.84	2.74099
6.85	2.73935
6.86	2.74066
6.87	2.72454
6.88	2.75152
6.89	2.73277
6.9	2.75152
6.91	2.73935
6.92	2.73507
6.93	2.74066
6.94	2.74691
6.95	2.73277
6.96	2.73606
6.97	2.73211
6.98	2.75415
6.99	2.74132
7	2.72685
7.01	2.74494
7.02	2.73803
7.03	2.73737
7.04	2.75053
7.05	2.76402
7.06	2.75119
7.07	2.73639
7.08	2.72816
7.09	2.7354
7.1	2.69658
7.11	2.75777
7.12	2.75711
7.13	2.80744
7.14	2.73376
7.15	2.72093
7.16	2.71632
7.17	2.74626
7.18	2.76369
7.19	2.71468
7.2	2.71435
7.21	2.71599
7.22	2.71303
7.23	2.71731
7.24	2.74856
7.25	2.7377
7.26	2.72454
7.27	2.72783
7.28	2.73803
7.29	2.73112
7.3	2.74691
7.31	2.7252
7.32	2.71402
7.33	2.74593
7.34	2.73639
7.35	2.69329
7.36	2.7081
7.37	2.70218
7.38	2.76073
7.39	2.73672
7.4	2.73408
7.41	2.74329
7.42	2.71994
7.43	2.72948
7.44	2.75283
7.45	2.71303
7.46	2.73112
7.47	2.70777
7.48	2.72257
7.49	2.72454
7.5	2.69428
7.51	2.73277
7.52	2.75349
7.53	2.7627
7.54	2.69461
7.55	2.74264
7.56	2.74593
7.57	2.7354
7.58	2.72027
7.59	2.7275
7.6	2.75086
7.61	2.7206
7.62	2.71007
7.63	2.71237
7.64	2.73441
7.65	2.73277
7.66	2.72718
7.67	2.71303
7.68	2.72685
7.69	2.71632
7.7	2.73639
7.71	2.74626
7.72	2.72158
7.73	2.70974
7.74	2.72553
7.75	2.71731
7.76	2.70448
7.77	2.74626
7.78	2.74691
7.79	2.75251
7.8	2.75645
7.81	2.73639
7.82	2.70974
7.83	2.69165
7.84	2.70481
7.85	2.7331
7.86	2.76336
7.87	2.73211
7.88	2.72158
7.89	2.72125
7.9	2.75382
7.91	2.72553
7.92	2.7627
7.93	2.71961
7.94	2.72586
7.95	2.75843
7.96	2.73836
7.97	2.75415
7.98	2.73047
7.99	2.71665
8	2.72981
8.01	2.72652
8.02	2.71402
8.03	2.75612
8.04	2.71829
8.05	2.71797
8.06	2.74066
8.07	2.7229
8.08	2.74593
8.09	2.72027
8.1	2.70777
8.11	2.73836
8.12	2.7206
8.13	2.72356
8.14	2.74066
8.15	2.74001
8.16	2.74198
8.17	2.74626
8.18	2.71797
8.19	2.73606
8.2	2.70612
8.21	2.74033
8.22	2.74165
8.23	2.70546
8.24	2.68441
8.25	2.73474
8.26	2.7479
8.27	2.73244
8.28	2.71566
8.29	2.6775
8.3	2.68606
8.31	2.68737
8.32	2.71928
8.33	2.75251
8.34	2.72882
8.35	2.72422
8.36	2.70908
8.37	2.69856
8.38	2.6956
8.39	2.70086
8.4	2.71106
8.41	2.72981
8.42	2.71237
8.43	2.73014
8.44	2.72849
8.45	2.7081
8.46	2.73704
8.47	2.72652
8.48	2.70185
8.49	2.72093
8.5	2.69494
8.51	2.70218
8.52	2.7104
8.53	2.72125
8.54	2.75349
8.55	2.75711
8.56	2.69625
8.57	2.69724
8.58	2.71599
8.59	2.73112
8.6	2.73376
8.61	2.7081
8.62	2.69757
8.63	2.71829
8.64	2.73408
8.65	2.6956
8.66	2.70119
8.67	2.7275
8.68	2.71632
8.69	2.70777
8.7	2.7206
8.71	2.71106
8.72	2.74823
8.73	2.73244
8.74	2.70843
8.75	2.72882
8.76	2.72027
8.77	2.71665
8.78	2.72454
8.79	2.73606
8.8	2.71007
8.81	2.69856
8.82	2.71797
8.83	2.71632
8.84	2.72783
8.85	2.72849
8.86	2.74198
8.87	2.71994
8.88	2.69921
8.89	2.7104
8.9	2.72487
8.91	2.73507
8.92	2.72422
8.93	2.71599
8.94	2.73507
8.95	2.70777
8.96	2.69
8.97	2.69823
8.98	2.7002
8.99	2.72816
9	2.74099
9.01	2.71402
9.02	2.69329
9.03	2.70119
9.04	2.73244
9.05	2.71435
9.06	2.70908
9.07	2.74231
9.08	2.7229
9.09	2.70941
9.1	2.70711
9.11	2.74033
9.12	2.73211
9.13	2.74724
9.14	2.7604
9.15	2.72422
9.16	2.68277
9.17	2.75547
9.18	2.72224
9.19	2.69856
9.2	2.71994
9.21	2.70448
9.22	2.71468
9.23	2.71994
9.24	2.71928
9.25	2.71204
9.26	2.72981
9.27	2.72027
9.28	2.71698
9.29	2.70678
9.3	2.71073
9.31	2.70678
9.32	2.70744
9.33	2.69033
9.34	2.70218
9.35	2.72422
9.36	2.73869
9.37	2.71139
9.38	2.7127
9.39	2.69066
9.4	2.71204
9.41	2.71369
9.42	2.72257
9.43	2.73606
9.44	2.70843
9.45	2.72389
9.46	2.73112
9.47	2.76632
9.48	2.74428
9.49	2.72158
9.5	2.72553
9.51	2.68277
9.52	2.67652
9.53	2.69428
9.54	2.71171
9.55	2.70283
9.56	2.73507
9.57	2.72487
9.58	2.74428
9.59	2.70941
9.6	2.72093
9.61	2.72652
9.62	2.71731
9.63	2.70744
9.64	2.71599
9.65	2.71171
9.66	2.715
9.67	2.71764
9.68	2.68639
9.69	2.69461
9.7	2.6979
9.71	2.74494
9.72	2.72948
9.73	2.69264
9.74	2.6956
9.75	2.715
9.76	2.7377
9.77	2.6752
9.78	2.71533
9.79	2.74691
9.8	2.73079
9.81	2.71566
9.82	2.6752
9.83	2.68737
9.84	2.68803
9.85	2.68737
9.86	2.70382
9.87	2.70119
9.88	2.72125
9.89	2.70908
9.9	2.72422
9.91	2.73014
9.92	2.70053
9.93	2.72454
9.94	2.70908
9.95	2.68704
9.96	2.71665
9.97	2.71435
9.98	2.72125
9.99	2.71665
10	2.69132
10.01	2.69724
10.02	2.71797
10.03	2.71106
10.04	2.71566
10.05	2.71599
10.06	2.68671
10.07	2.70119
10.08	2.72389
10.09	2.75316
10.1	2.70283
10.11	2.71731
10.12	2.72323
10.13	2.70086
10.14	2.68013
10.15	2.7229
10.16	2.73968
10.17	2.73376
10.18	2.74593
10.19	2.70744
10.2	2.70448
10.21	2.68967
10.22	2.71073
10.23	2.72191
10.24	2.73178
10.25	2.74626
10.26	2.71764
10.27	2.72158
10.28	2.71928
10.29	2.7206
10.3	2.7331
10.31	2.71533
10.32	2.72718
10.33	2.73441
10.34	2.71336
10.35	2.71402
10.36	2.73079
10.37	2.74264
10.38	2.71073
10.39	2.70415
10.4	2.7127
10.41	2.71928
10.42	2.68803
10.43	2.71073
10.44	2.71698
10.45	2.71862
10.46	2.71106
10.47	2.68178
10.48	2.68112
10.49	2.70218
10.5	2.70185
10.51	2.72257
10.52	2.69954
10.53	2.68211
10.54	2.70316
10.55	2.73079
10.56	2.7104
10.57	2.71336
10.58	2.73474
10.59	2.70218
10.6	2.72849
10.61	2.71797
10.62	2.7025
10.63	2.69856
10.64	2.71237
10.65	2.71106
10.66	2.70514
10.67	2.74297
10.68	2.72027
10.69	2.70514
10.7	2.72948
10.71	2.73474
10.72	2.70777
10.73	2.67882
10.74	2.7377
10.75	2.70612
10.76	2.72356
10.77	2.73836
10.78	2.72586
10.79	2.73639
10.8	2.68869
10.81	2.71139
10.82	2.74231
10.83	2.72356
10.84	2.69296
10.85	2.72981
10.86	2.73244
10.87	2.74231
10.88	2.71994
10.89	2.67619
10.9	2.69889
10.91	2.73376
10.92	2.71698
10.93	2.70711
10.94	2.70777
10.95	2.71566
10.96	2.70941
10.97	2.74527
10.98	2.71237
10.99	2.72882
11	2.70941
11.01	2.71204
11.02	2.71764
11.03	2.71731
11.04	2.69132
11.05	2.73014
11.06	2.70185
11.07	2.75152
11.08	2.73902
11.09	2.7377
11.1	2.75612
11.11	2.72257
11.12	2.69625
11.13	2.68935
11.14	2.67619
11.15	2.71303
11.16	2.73441
11.17	2.70777
11.18	2.70843
11.19	2.70152
11.2	2.70579
11.21	2.72981
11.22	2.72685
11.23	2.67948
11.24	2.6979
11.25	2.71829
11.26	2.67421
11.27	2.70152
11.28	2.70415
11.29	2.69954
11.3	2.70612
11.31	2.69362
11.32	2.68408
11.33	2.71073
11.34	2.67685
11.35	2.66961
11.36	2.66303
11.37	2.71303
11.38	2.73606
11.39	2.70678
11.4	2.69
11.41	2.74527
11.42	2.74757
11.43	2.74494
11.44	2.69527
11.45	2.69033
11.46	2.72125
11.47	2.70645
11.48	2.70185
11.49	2.71698
11.5	2.71632
11.51	2.74329
11.52	2.72783
11.53	2.70514
11.54	2.70711
11.55	2.70843
11.56	2.71073
11.57	2.74922
11.58	2.69198
11.59	2.69264
11.6	2.72783
11.61	2.69757
11.62	2.68935
11.63	2.72027
11.64	2.71599
11.65	2.71895
11.66	2.7127
11.67	2.72783
11.68	2.73244
11.69	2.67915
11.7	2.70711
11.71	2.71829
11.72	2.70283
11.73	2.70941
11.74	2.71139
11.75	2.69264
11.76	2.72816
11.77	2.67816
11.78	2.67191
11.79	2.69395
11.8	2.72553
11.81	2.72257
11.82	2.6979
11.83	2.71171
11.84	2.67487
11.85	2.68046
11.86	2.69724
11.87	2.73211
11.88	2.70283
11.89	2.69987
11.9	2.72586
11.91	2.72619
11.92	2.72257
11.93	2.70711
11.94	2.70283
11.95	2.70974
11.96	2.70119
11.97	2.70875
11.98	2.70514
11.99	2.69889
12	2.68573
12.01	2.72224
12.02	2.70053
12.03	2.69428
12.04	2.69296
12.05	2.72027
12.06	2.71928
12.07	2.68244
12.08	2.70579
12.09	2.70777
12.1	2.72027
12.11	2.69132
12.12	2.70481
12.13	2.70974
12.14	2.71797
12.15	2.73211
12.16	2.70481
12.17	2.71303
12.18	2.69395
12.19	2.69099
12.2	2.69954
12.21	2.71895
12.22	2.70053
12.23	2.7206
12.24	2.69954
12.25	2.68046
12.26	2.71797
12.27	2.68013
12.28	2.6956
12.29	2.7127
12.3	2.68145
12.31	2.74198
12.32	2.69494
12.33	2.66467
12.34	2.70218
12.35	2.69823
12.36	2.71994
12.37	2.71961
12.38	2.71829
12.39	2.6877
12.4	2.70185
12.41	2.71303
12.42	2.67783
12.43	2.68869
12.44	2.68803
12.45	2.70514
12.46	2.69296
12.47	2.68079
12.48	2.69329
12.49	2.72685
12.5	2.69165
12.51	2.70316
12.52	2.72125
12.53	2.69362
12.54	2.71599
12.55	2.71369
12.56	2.7025
12.57	2.66171
12.58	2.69033
12.59	2.75185
12.6	2.72948
12.61	2.71797
12.62	2.71204
12.63	2.69198
12.64	2.71139
12.65	2.68079
12.66	2.69625
12.67	2.67356
12.68	2.68606
12.69	2.69198
12.7	2.69165
12.71	2.68507
12.72	2.7206
12.73	2.74198
12.74	2.70185
12.75	2.70777
12.76	2.6854
12.77	2.70152
12.78	2.69395
12.79	2.70514
12.8	2.69
12.81	2.69823
12.82	2.66073
12.83	2.66928
12.84	2.66862
12.85	2.69954
12.86	2.70514
12.87	2.69362
12.88	2.74165
12.89	2.70349
12.9	2.68375
12.91	2.67356
12.92	2.69362
12.93	2.68013
12.94	2.69
12.95	2.70514
12.96	2.73474
12.97	2.67224
12.98	2.67487
12.99	2.70744
13	2.70843
13.01	2.6979
13.02	2.70974
13.03	2.70612
13.04	2.71731
13.05	2.70843
13.06	2.69231
13.07	2.68079
13.08	2.69954
13.09	2.67783
13.1	2.69592
13.11	2.67915
13.12	2.7252
13.13	2.69362
13.14	2.70119
13.15	2.70974
13.16	2.68013
13.17	2.68441
13.18	2.69921
13.19	2.71204
13.2	2.71336
13.21	2.69494
13.22	2.69856
13.23	2.69099
13.24	2.69592
13.25	2.69987
13.26	2.7229
13.27	2.70546
13.28	2.7104
13.29	2.71303
13.3	2.69527
13.31	2.68606
13.32	2.71764
13.33	2.71928
13.34	2.68408
13.35	2.68836
13.36	2.67915
13.37	2.715
13.38	2.66961
13.39	2.70579
13.4	2.67717
13.41	2.68507
13.42	2.68474
13.43	2.70711
13.44	2.71665
13.45	2.67421
13.46	2.69823
13.47	2.70645
13.48	2.69494
13.49	2.70349
13.5	2.68013
13.51	2.69921
13.52	2.70382
13.53	2.69856
13.54	2.69921
13.55	2.71171
13.56	2.7331
13.57	2.69033
13.58	2.71402
13.59	2.7081
13.6	2.68342
13.61	2.70612
13.62	2.72849
13.63	2.70086
13.64	2.69395
13.65	2.69
13.66	2.67882
13.67	2.69987
13.68	2.70514
13.69	2.67915
13.7	2.69592
13.71	2.71204
13.72	2.70316
13.73	2.68935
13.74	2.71599
13.75	2.6775
13.76	2.69165
13.77	2.70941
13.78	2.71599
13.79	2.6979
13.8	2.69724
13.81	2.71139
13.82	2.72389
13.83	2.69494
13.84	2.67454
13.85	2.67816
13.86	2.67125
13.87	2.69954
13.88	2.72882
13.89	2.68573
13.9	2.70415
13.91	2.71369
13.92	2.69099
13.93	2.70875
13.94	2.71764
13.95	2.68737
13.96	2.67356
13.97	2.6979
13.98	2.70974
13.99	2.70382
14	2.70579
14.01	2.71237
14.02	2.69264
14.03	2.71106
14.04	2.70875
14.05	2.67816
14.06	2.67027
14.07	2.6877
14.08	2.72915
14.09	2.68671
14.1	2.71928
14.11	2.69757
14.12	2.66829
14.13	2.71928
14.14	2.72915
14.15	2.71862
14.16	2.68704
14.17	2.68112
14.18	2.68079
14.19	2.72619
14.2	2.7025
14.21	2.69823
14.22	2.70218
14.23	2.70185
14.24	2.68902
14.25	2.70218
14.26	2.70546
14.27	2.71764
14.28	2.70908
14.29	2.68967
14.3	2.72553
14.31	2.73408
14.32	2.71139
14.33	2.68013
14.34	2.71171
14.35	2.70843
14.36	2.66007
14.37	2.6775
14.38	2.70119
14.39	2.70448
14.4	2.72718
14.41	2.71961
14.42	2.68869
14.43	2.72093
14.44	2.68408
14.45	2.67421
14.46	2.68573
14.47	2.69856
14.48	2.69362
14.49	2.67849
14.5	2.70218
14.51	2.70053
14.52	2.72849
14.53	2.72224
14.54	2.70283
14.55	2.68902
14.56	2.65941
14.57	2.70546
14.58	2.69132
14.59	2.69461
14.6	2.68046
14.61	2.66796
14.62	2.70546
14.63	2.71632
14.64	2.68145
14.65	2.69823
14.66	2.70908
14.67	2.70678
14.68	2.70119
14.69	2.72224
14.7	2.70974
14.71	2.71303
14.72	2.69987
14.73	2.70218
14.74	2.72816
14.75	2.73704
14.76	2.70218
14.77	2.70843
14.78	2.69921
14.79	2.69395
14.8	2.71994
14.81	2.70086
14.82	2.69889
14.83	2.68836
14.84	2.7104
14.85	2.72849
14.86	2.69264
14.87	2.70777
14.88	2.68639
14.89	2.71336
14.9	2.72389
14.91	2.69691
14.92	2.71435
14.93	2.72849
14.94	2.69
14.95	2.70119
14.96	2.67717
14.97	2.71895
14.98	2.71599
14.99	2.71237
15	2.72915
15.01	2.73704
15.02	2.70316
15.03	2.71731
15.04	2.7081
15.05	2.71237
15.06	2.6956
15.07	2.73441
15.08	2.72125
15.09	2.67783
15.1	2.69921
15.11	2.71862
15.12	2.69296
15.13	2.69954
15.14	2.73968
15.15	2.71139
15.16	2.71895
15.17	2.69724
15.18	2.69296
15.19	2.70349
15.2	2.68803
15.21	2.67915
15.22	2.70152
15.23	2.70678
15.24	2.70875
15.25	2.72685
15.26	2.71599
15.27	2.69691
15.28	2.71731
15.29	2.72356
15.3	2.72652
15.31	2.68211
15.32	2.69066
15.33	2.73079
15.34	2.70185
15.35	2.68079
15.36	2.69461
15.37	2.72783
15.38	2.71632
15.39	2.69461
15.4	2.69823
15.41	2.69231
15.42	2.66303
15.43	2.68046
15.44	2.70645
15.45	2.7229
15.46	2.73211
15.47	2.72816
15.48	2.68967
15.49	2.70514
15.5	2.73606
15.51	2.69
15.52	2.70908
15.53	2.68474
15.54	2.69033
15.55	2.70086
15.56	2.70185
15.57	2.70974
15.58	2.73869
15.59	2.69033
15.6	2.69198
15.61	2.69889
15.62	2.71336
15.63	2.69987
15.64	2.68046
15.65	2.70711
15.66	2.70711
15.67	2.68375
15.68	2.7081
15.69	2.71632
15.7	2.67553
15.71	2.66171
15.72	2.68441
15.73	2.71895
15.74	2.72323
15.75	2.72422
15.76	2.68836
15.77	2.69625
15.78	2.71797
15.79	2.72323
15.8	2.70843
15.81	2.7104
15.82	2.67257
15.83	2.6877
15.84	2.68507
15.85	2.70053
15.86	2.69889
15.87	2.71895
15.88	2.67882
15.89	2.67487
15.9	2.67948
15.91	2.69987
15.92	2.70777
15.93	2.68967
15.94	2.68013
15.95	2.6752
15.96	2.67092
15.97	2.70843
15.98	2.69461
15.99	2.69987
16	2.6956
16.01	2.7002
16.02	2.69757
16.03	2.68178
16.04	2.67685
16.05	2.67717
16.06	2.67948
16.07	2.69132
16.08	2.70053
16.09	2.70678
16.1	2.71073
16.11	2.69395
16.12	2.68408
16.13	2.70579
16.14	2.7104
16.15	2.70152
16.16	2.69987
16.17	2.69231
16.18	2.70875
16.19	2.68803
16.2	2.69428
16.21	2.72783
16.22	2.70645
16.23	2.69921
16.24	2.73145
16.25	2.68244
16.26	2.70744
16.27	2.67915
16.28	2.69428
16.29	2.69494
16.3	2.70185
16.31	2.70875
16.32	2.70514
16.33	2.68408
16.34	2.68606
16.35	2.68211
16.36	2.67685
16.37	2.6979
16.38	2.69889
16.39	2.71829
16.4	2.71106
16.41	2.69987
16.42	2.70908
16.43	2.69165
16.44	2.69461
16.45	2.69757
16.46	2.71435
16.47	2.67652
16.48	2.68375
16.49	2.70218
16.5	2.69658
16.51	2.68704
16.52	2.6854
16.53	2.69954
16.54	2.69757
16.55	2.69889
16.56	2.71007
16.57	2.72257
16.58	2.68375
16.59	2.66632
16.6	2.66138
16.61	2.65481
16.62	2.66895
16.63	2.70448
16.64	2.68935
16.65	2.68178
16.66	2.69
16.67	2.71994
16.68	2.70612
16.69	2.68967
16.7	2.67356
16.71	2.67487
16.72	2.67356
16.73	2.69132
16.74	2.69132
16.75	2.68836
16.76	2.70645
16.77	2.71599
16.78	2.71007
16.79	2.70612
16.8	2.71106
16.81	2.70448
16.82	2.70744
16.83	2.68474
16.84	2.68375
16.85	2.69033
16.86	2.69296
16.87	2.66895
16.88	2.70316
16.89	2.71829
16.9	2.69099
16.91	2.66303
16.92	2.67849
16.93	2.68573
16.94	2.6729
16.95	2.6854
16.96	2.69954
16.97	2.70546
16.98	2.70086
16.99	2.68507
17	2.69889
17.01	2.65777
17.02	2.69198
17.03	2.70053
17.04	2.66961
17.05	2.6729
17.06	2.67388
17.07	2.67652
17.08	2.71895
17.09	2.69494
17.1	2.68704
17.11	2.66862
17.12	2.71007
17.13	2.67619
17.14	2.6729
17.15	2.69921
17.16	2.68704
17.17	2.67685
17.18	2.73112
17.19	2.71468
17.2	2.68573
17.21	2.69264
17.22	2.70546
17.23	2.69
17.24	2.6854
17.25	2.66698
17.26	2.70283
17.27	2.6979
17.28	2.68342
17.29	2.68606
17.3	2.68967
17.31	2.69033
17.32	2.67553
17.33	2.67882
17.34	2.67125
17.35	2.65481
17.36	2.67849
17.37	2.69395
17.38	2.6752
17.39	2.68639
17.4	2.67948
17.41	2.68145
17.42	2.67027
17.43	2.69757
17.44	2.71961
17.45	2.70448
17.46	2.70875
17.47	2.68145
17.48	2.69494
17.49	2.70415
17.5	2.68639
17.51	2.68935
17.52	2.69165
17.53	2.69823
17.54	2.67553
17.55	2.70119
17.56	2.68902
17.57	2.66106
17.58	2.71961
17.59	2.67948
17.6	2.6877
17.61	2.67323
17.62	2.69856
17.63	2.68244
17.64	2.6775
17.65	2.67224
17.66	2.71731
17.67	2.6956
17.68	2.70546
17.69	2.71599
17.7	2.71632
17.71	2.69428
17.72	2.68803
17.73	2.68967
17.74	2.68244
17.75	2.72619
17.76	2.68803
17.77	2.68145
17.78	2.69
17.79	2.68803
17.8	2.69231
17.81	2.71829
17.82	2.67783
17.83	2.70777
17.84	2.70086
17.85	2.68869
17.86	2.67948
17.87	2.68704
17.88	2.70415
17.89	2.70283
17.9	2.68013
17.91	2.70119
17.92	2.70448
17.93	2.69132
17.94	2.69527
17.95	2.69954
17.96	2.69921
17.97	2.69132
17.98	2.67257
17.99	2.66994
18	2.6854
18.01	2.70579
18.02	2.68573
18.03	2.69033
18.04	2.69099
18.05	2.67125
18.06	2.69889
18.07	2.69691
18.08	2.71073
18.09	2.67586
18.1	2.67849
18.11	2.72191
18.12	2.69889
18.13	2.69
18.14	2.69691
18.15	2.69987
18.16	2.70612
18.17	2.67323
18.18	2.69395
18.19	2.665
18.2	2.68836
18.21	2.67849
18.22	2.68967
18.23	2.72882
18.24	2.69494
18.25	2.6752
18.26	2.6854
18.27	2.6729
18.28	2.69
18.29	2.68441
18.3	2.68902
18.31	2.70218
18.32	2.71106
18.33	2.68211
18.34	2.69395
18.35	2.68935
18.36	2.73079
18.37	2.6979
18.38	2.69264
18.39	2.6831
18.4	2.66007
18.41	2.6752
18.42	2.71007
18.43	2.70908
18.44	2.66862
18.45	2.69165
18.46	2.69461
18.47	2.69757
18.48	2.67092
18.49	2.64165
18.5	2.66928
18.51	2.67816
18.52	2.67783
18.53	2.68178
18.54	2.68211
18.55	2.71237
18.56	2.6877
18.57	2.7002
18.58	2.68869
18.59	2.69527
18.6	2.6979
18.61	2.67421
18.62	2.70415
18.63	2.70382
18.64	2.70382
18.65	2.70119
18.66	2.69395
18.67	2.71369
18.68	2.71468
18.69	2.65842
18.7	2.66632
18.71	2.67487
18.72	2.69
18.73	2.68639
18.74	2.70283
18.75	2.7081
18.76	2.72816
18.77	2.71106
18.78	2.67092
18.79	2.72422
18.8	2.68573
18.81	2.69658
18.82	2.71599
18.83	2.715
18.84	2.68639
18.85	2.67454
18.86	2.69362
18.87	2.67948
18.88	2.67816
18.89	2.6877
18.9	2.72158
18.91	2.69823
18.92	2.67619
18.93	2.70119
18.94	2.6706
18.95	2.66632
18.96	2.68507
18.97	2.66237
18.98	2.66599
18.99	2.67619
19	2.67421
19.01	2.6729
19.02	2.6831
19.03	2.6979
19.04	2.67652
19.05	2.69165
19.06	2.69428
19.07	2.67191
19.08	2.69165
19.09	2.71139
19.1	2.6854
19.11	2.70974
19.12	2.68474
19.13	2.67027
19.14	2.67816
19.15	2.69724
19.16	2.66237
19.17	2.66796
19.18	2.7206
19.19	2.68178
19.2	2.6854
19.21	2.69264
19.22	2.66533
19.23	2.68013
19.24	2.70316
19.25	2.71402
19.26	2.69099
19.27	2.68342
19.28	2.69296
19.29	2.67027
19.3	2.66895
19.31	2.65612
19.32	2.67224
19.33	2.69264
19.34	2.69757
19.35	2.68112
19.36	2.66994
19.37	2.71698
19.38	2.66796
19.39	2.6775
19.4	2.71533
19.41	2.66928
19.42	2.68573
19.43	2.65612
19.44	2.69362
19.45	2.72685
19.46	2.67816
19.47	2.64855
19.48	2.67125
19.49	2.69395
19.5	2.68869
19.51	2.68573
19.52	2.70645
19.53	2.69461
19.54	2.69625
19.55	2.70546
19.56	2.71007
19.57	2.70185
19.58	2.66698
19.59	2.71402
19.6	2.7025
19.61	2.66237
19.62	2.68606
19.63	2.69494
19.64	2.6979
19.65	2.67125
19.66	2.70448
19.67	2.68013
19.68	2.67388
19.69	2.68606
19.7	2.69625
19.71	2.67388
19.72	2.69198
19.73	2.67882
19.74	2.72224
19.75	2.67849
19.76	2.68474
19.77	2.67487
19.78	2.67816
19.79	2.69033
19.8	2.68507
19.81	2.67158
19.82	2.71402
19.83	2.7252
19.84	2.70711
19.85	2.70152
19.86	2.71204
19.87	2.68639
19.88	2.66961
19.89	2.64987
19.9	2.6706
19.91	2.67717
19.92	2.68145
19.93	2.70514
19.94	2.67948
19.95	2.68079
19.96	2.69132
19.97	2.69889
19.98	2.67717
19.99	2.69
20	2.66763
20.01	2.66862
20.02	2.69165
20.03	2.69724
20.04	2.70152
20.05	2.67125
20.06	2.64362
20.07	2.68178
20.08	2.69625
20.09	2.68211
20.1	2.68244
20.11	2.70218
20.12	2.72849
20.13	2.67948
20.14	2.64461
20.15	2.6627
20.16	2.72685
20.17	2.70843
20.18	2.70875
20.19	2.71468
20.2	2.72224
20.21	2.69757
20.22	2.67487
20.23	2.68277
20.24	2.67158
20.25	2.66698
20.26	2.69132
20.27	2.66763
20.28	2.7002
20.29	2.6752
20.3	2.68902
20.31	2.71106
20.32	2.70908
20.33	2.67323
20.34	2.66237
20.35	2.66994
20.36	2.69494
20.37	2.6877
20.38	2.71303
20.39	2.71862
20.4	2.67158
20.41	2.68375
20.42	2.69691
20.43	2.67717
20.44	2.665
20.45	2.68704
20.46	2.68573
20.47	2.69264
20.48	2.69987
20.49	2.6775
20.5	2.65777
20.51	2.6775
20.52	2.69
20.53	2.68935
20.54	2.67783
20.55	2.68211
20.56	2.71204
20.57	2.70678
20.58	2.71764
20.59	2.70119
20.6	2.68967
20.61	2.68507
20.62	2.69264
20.63	2.67915
20.64	2.68967
20.65	2.69987
20.66	2.69329
20.67	2.68244
20.68	2.68507
20.69	2.69889
20.7	2.65809
20.71	2.69264
20.72	2.68967
20.73	2.68178
20.74	2.67981
20.75	2.68935
20.76	2.68803
20.77	2.66796
20.78	2.7002
20.79	2.70415
20.8	2.69033
20.81	2.7002
20.82	2.65053
20.83	2.71402
20.84	2.69264
20.85	2.68211
20.86	2.72027
20.87	2.68145
20.88	2.68178
20.89	2.66928
20.9	2.67717
20.91	2.66698
20.92	2.68507
20.93	2.71599
20.94	2.69461
20.95	2.67619
20.96	2.6831
20.97	2.69658
20.98	2.69395
20.99	2.70218
21	2.71632
21.01	2.67586
21.02	2.66402
21.03	2.68704
21.04	2.66829
21.05	2.66665
21.06	2.6956
21.07	2.7002
21.08	2.68178
21.09	2.69132
21.1	2.67717
21.11	2.69395
21.12	2.70514
21.13	2.69
21.14	2.6775
21.15	2.66402
21.16	2.69
21.17	2.70119
21.18	2.68342
21.19	2.68803
21.2	2.70481
21.21	2.67948
21.22	2.64592
21.23	2.6706
21.24	2.7002
21.25	2.66467
21.26	2.64461
21.27	2.70711
21.28	2.71171
21.29	2.70843
21.3	2.71435
21.31	2.69592
21.32	2.71731
21.33	2.66007
21.34	2.68079
21.35	2.64691
21.36	2.66698
21.37	2.70086
21.38	2.71928
21.39	2.68869
21.4	2.6752
21.41	2.67553
21.42	2.66434
21.43	2.67191
21.44	2.68704
21.45	2.7002
21.46	2.69231
21.47	2.68474
21.48	2.67619
21.49	2.68704
21.5	2.66237
21.51	2.65908
21.52	2.69198
21.53	2.69494
21.54	2.67487
21.55	2.70711
21.56	2.68869
21.57	2.68211
21.58	2.66763
21.59	2.65053
21.6	2.69691
21.61	2.70053
21.62	2.68902
21.63	2.69527
21.64	2.71402
21.65	2.70086
21.66	2.69099
21.67	2.70283
21.68	2.7002
21.69	2.6979
21.7	2.66632
21.71	2.70546
21.72	2.6854
21.73	2.65349
21.74	2.63507
21.75	2.70119
21.76	2.6706
21.77	2.6854
21.78	2.68737
21.79	2.67158
21.8	2.68013
21.81	2.64691
21.82	2.68902
21.83	2.7081
21.84	2.68013
21.85	2.66796
21.86	2.66566
21.87	2.69329
21.88	2.6877
21.89	2.70974
21.9	2.68671
21.91	2.69494
21.92	2.69033
21.93	2.69527
21.94	2.67685
21.95	2.68079
21.96	2.70119
21.97	2.7252
21.98	2.68507
21.99	2.69099
22	2.66237
22.01	2.68869
22.02	2.66895
22.03	2.66895
22.04	2.66467
22.05	2.68935
22.06	2.6979
22.07	2.70908
22.08	2.7002
22.09	2.71073
22.1	2.6831
22.11	2.66632
22.12	2.69198
22.13	2.67454
22.14	2.68507
22.15	2.68342
22.16	2.67586
22.17	2.68606
22.18	2.69165
22.19	2.71073
22.2	2.66237
22.21	2.67586
22.22	2.68375
22.23	2.69231
22.24	2.67882
22.25	2.68112
22.26	2.67454
22.27	2.65119
22.28	2.66698
22.29	2.71171
22.3	2.68178
22.31	2.69198
22.32	2.71237
22.33	2.6979
22.34	2.67027
22.35	2.66796
22.36	2.67487
22.37	2.70645
22.38	2.68178
22.39	2.68211
22.4	2.69395
22.41	2.67783
22.42	2.68342
22.43	2.71204
22.44	2.68342
22.45	2.71928
22.46	2.67487
22.47	2.67849
22.48	2.66138
22.49	2.67652
22.5	2.69264
22.51	2.70678
22.52	2.70152
22.53	2.69461
22.54	2.68737
22.55	2.70218
22.56	2.70382
22.57	2.68145
22.58	2.67948
22.59	2.6706
22.6	2.69856
22.61	2.71599
22.62	2.7025
22.63	2.67586
22.64	2.67224
22.65	2.70875
22.66	2.69856
22.67	2.65579
22.68	2.71073
22.69	2.70218
22.7	2.68277
22.71	2.6706
22.72	2.70415
22.73	2.70152
22.74	2.67849
22.75	2.69921
22.76	2.70678
22.77	2.70218
22.78	2.69395
22.79	2.69625
22.8	2.67948
22.81	2.67388
22.82	2.66961
22.83	2.67586
22.84	2.68967
22.85	2.68803
22.86	2.67027
22.87	2.7127
22.88	2.72619
22.89	2.6627
22.9	2.69724
22.91	2.68902
22.92	2.6706
22.93	2.68836
22.94	2.68441
22.95	2.69461
22.96	2.68869
22.97	2.70283
22.98	2.68803
22.99	2.65809
23	2.68441
23.01	2.68737
23.02	2.7127
23.03	2.68836
23.04	2.70119
23.05	2.69132
23.06	2.67816
23.07	2.6831
23.08	2.7025
23.09	2.71994
23.1	2.6854
23.11	2.67257
23.12	2.65908
23.13	2.67553
23.14	2.66204
23.15	2.67421
23.16	2.68902
23.17	2.69231
23.18	2.66402
23.19	2.65809
23.2	2.69625
23.21	2.64362
23.22	2.65875
23.23	2.67092
23.24	2.67224
23.25	2.70053
23.26	2.7127
23.27	2.67981
23.28	2.68639
23.29	2.69691
23.3	2.70974
23.31	2.68606
23.32	2.67158
23.33	2.67685
23.34	2.67224
23.35	2.67454
23.36	2.67224
23.37	2.65744
23.38	2.68342
23.39	2.68441
23.4	2.68277
23.41	2.67619
23.42	2.66303
23.43	2.68112
23.44	2.68902
23.45	2.67553
23.46	2.6854
23.47	2.69823
23.48	2.69823
23.49	2.69625
23.5	2.69724
23.51	2.68869
23.52	2.66402
23.53	2.67356
23.54	2.69362
23.55	2.67783
23.56	2.69724
23.57	2.66632
23.58	2.64954
23.59	2.72125
23.6	2.68671
23.61	2.68573
23.62	2.68277
23.63	2.69099
23.64	2.67027
23.65	2.68803
23.66	2.69395
23.67	2.68935
23.68	2.69461
23.69	2.70546
23.7	2.69264
23.71	2.67388
23.72	2.67323
23.73	2.66928
23.74	2.72125
23.75	2.71797
23.76	2.69428
23.77	2.67849
23.78	2.66895
23.79	2.6956
23.8	2.66763
23.81	2.71797
23.82	2.71369
23.83	2.69954
23.84	2.69099
23.85	2.67125
23.86	2.67948
23.87	2.66566
23.88	2.65513
23.89	2.69889
23.9	2.71566
23.91	2.72191
23.92	2.71698
23.93	2.72093
23.94	2.67092
23.95	2.68606
23.96	2.69
23.97	2.67981
23.98	2.68375
23.99	2.66106
24	2.65283
24.01	2.67619
24.02	2.69954
24.03	2.68902
24.04	2.67027
24.05	2.64033
24.06	2.64987
24.07	2.68836
24.08	2.69954
24.09	2.66599
24.1	2.67454
24.11	2.69592
24.12	2.67158
24.13	2.66138
24.14	2.69198
24.15	2.69296
24.16	2.6775
24.17	2.67882
24.18	2.68507
24.19	2.69395
24.2	2.70546
24.21	2.70546
24.22	2.68836
24.23	2.67882
24.24	2.65086
24.25	2.69066
24.26	2.69
24.27	2.68935
24.28	2.66467
24.29	2.66796
24.3	2.68836
24.31	2.6752
24.32	2.66138
24.33	2.67717
24.34	2.65086
24.35	2.67158
24.36	2.67553
24.37	2.6877
24.38	2.69362
24.39	2.70086
24.4	2.68967
24.41	2.67882
24.42	2.64395
24.43	2.68507
24.44	2.66895
24.45	2.67849
24.46	2.70546
24.47	2.68573
24.48	2.68803
24.49	2.68639
24.5	2.67816
24.51	2.68671
24.52	2.66533
24.53	2.68869
24.54	2.67487
24.55	2.66434
24.56	2.69428
24.57	2.69954
24.58	2.68704
24.59	2.68573
24.6	2.67125
24.61	2.6775
24.62	2.65875
24.63	2.66731
24.64	2.67388
24.65	2.68606
24.66	2.6979
24.67	2.64954
24.68	2.6854
24.69	2.67586
24.7	2.67027
24.71	2.68836
24.72	2.6729
24.73	2.63605
24.74	2.66566
24.75	2.69033
24.76	2.68737
24.77	2.69296
24.78	2.665
24.79	2.68178
24.8	2.67816
24.81	2.68211
24.82	2.67981
24.83	2.67158
24.84	2.67915
24.85	2.66829
24.86	2.69954
24.87	2.70448
24.88	2.66961
24.89	2.67816
24.9	2.69
24.91	2.67553
24.92	2.67158
24.93	2.69494
24.94	2.70875
24.95	2.69231
24.96	2.67849
24.97	2.6956
24.98	2.68474
24.99	2.69987
25	2.7025
25.01	2.70908
25.02	2.65974
25.03	2.69066
25.04	2.68474
25.05	2.67125
25.06	2.65711
25.07	2.67553
25.08	2.65513
25.09	2.67717
25.1	2.64198
25.11	2.66369
25.12	2.66336
25.13	2.69395
25.14	2.66237
25.15	2.67191
25.16	2.6854
25.17	2.68935
25.18	2.65579
25.19	2.67553
25.2	2.66402
25.21	2.68474
25.22	2.6877
25.23	2.66632
25.24	2.6706
25.25	2.65217
25.26	2.68902
25.27	2.68013
25.28	2.71204
25.29	2.71435
25.3	2.66204
25.31	2.68737
25.32	2.69198
25.33	2.68013
25.34	2.68639
25.35	2.68211
25.36	2.66434
25.37	2.68935
25.38	2.70415
25.39	2.69757
25.4	2.67619
25.41	2.69033
25.42	2.67586
25.43	2.6854
25.44	2.65777
25.45	2.67125
25.46	2.7002
25.47	2.69329
25.48	2.68803
25.49	2.6706
25.5	2.65612
25.51	2.69231
25.52	2.69921
25.53	2.71303
25.54	2.67849
25.55	2.68211
25.56	2.65645
25.57	2.66698
25.58	2.65612
25.59	2.66698
25.6	2.68606
25.61	2.66204
25.62	2.65744
25.63	2.69066
25.64	2.69691
25.65	2.66566
25.66	2.68573
25.67	2.67882
25.68	2.6525
25.69	2.69889
25.7	2.68737
25.71	2.69198
25.72	2.66533
25.73	2.67816
25.74	2.65382
25.75	2.65513
25.76	2.62454
25.77	2.65941
25.78	2.70645
25.79	2.69461
25.8	2.68737
25.81	2.69033
25.82	2.69198
25.83	2.65908
25.84	2.69329
25.85	2.67586
25.86	2.66632
25.87	2.70843
25.88	2.70349
25.89	2.65941
25.9	2.67092
25.91	2.67553
25.92	2.68408
25.93	2.66796
25.94	2.65382
25.95	2.66829
25.96	2.66402
25.97	2.65152
25.98	2.68671
25.99	2.70382
26	2.66928
26.01	2.6775
26.02	2.65546
26.03	2.66698
26.04	2.73474
26.05	2.7229
26.06	2.68639
26.07	2.66862
26.08	2.66204
26.09	2.65513
26.1	2.6854
26.11	2.66138
26.12	2.65875
26.13	2.63309
26.14	2.66731
26.15	2.69395
26.16	2.70086
26.17	2.69691
26.18	2.68342
26.19	2.6775
26.2	2.69099
26.21	2.66599
26.22	2.66731
26.23	2.70481
26.24	2.67717
26.25	2.67257
26.26	2.66994
26.27	2.68441
26.28	2.66895
26.29	2.63803
26.3	2.67816
26.31	2.69066
26.32	2.67454
26.33	2.67685
26.34	2.69954
26.35	2.67191
26.36	2.66665
26.37	2.64263
26.38	2.65678
26.39	2.64987
26.4	2.6752
26.41	2.66237
26.42	2.66303
26.43	2.69296
26.44	2.6752
26.45	2.70612
26.46	2.68474
26.47	2.68967
26.48	2.68211
26.49	2.68474
26.5	2.68573
26.51	2.66928
26.52	2.66467
26.53	2.67158
26.54	2.66204
26.55	2.68342
26.56	2.69
26.57	2.67257
26.58	2.67487
26.59	2.66928
26.6	2.67981
26.61	2.67981
26.62	2.67421
26.63	2.65809
26.64	2.64658
26.65	2.66204
26.66	2.66007
26.67	2.70645
26.68	2.6854
26.69	2.69198
26.7	2.69658
26.71	2.67323
26.72	2.6877
26.73	2.66599
26.74	2.68112
26.75	2.67421
26.76	2.68935
26.77	2.67257
26.78	2.66731
26.79	2.67652
26.8	2.66073
26.81	2.68342
26.82	2.7081
26.83	2.70152
26.84	2.68869
26.85	2.69823
26.86	2.6854
26.87	2.67125
26.88	2.65546
26.89	2.64987
26.9	2.66928
26.91	2.64099
26.92	2.66237
26.93	2.69527
26.94	2.70908
26.95	2.70579
26.96	2.70349
26.97	2.68967
26.98	2.67717
26.99	2.65415
27	2.68606
27.01	2.67487
27.02	2.68704
27.03	2.65119
27.04	2.66862
27.05	2.66928
27.06	2.67981
27.07	2.69296
27.08	2.69264
27.09	2.66895
27.1	2.65612
27.11	2.67849
27.12	2.69987
27.13	2.69066
27.14	2.64987
27.15	2.68737
27.16	2.70875
27.17	2.66994
27.18	2.65448
27.19	2.67981
27.2	2.68606
27.21	2.66336
27.22	2.69264
27.23	2.69066
27.24	2.70119
27.25	2.70448
27.26	2.68211
27.27	2.67092
27.28	2.67619
27.29	2.67915
27.3	2.68639
27.31	2.65579
27.32	2.66171
27.33	2.68013
27.34	2.69987
27.35	2.70448
27.36	2.71007
27.37	2.67125
27.38	2.6502
27.39	2.6752
27.4	2.69856
27.41	2.72454
27.42	2.67849
27.43	2.65777
27.44	2.68178
27.45	2.69231
27.46	2.6877
27.47	2.66961
27.48	2.69691
27.49	2.70579
27.5	2.68277
27.51	2.70185
27.52	2.71435
27.53	2.70185
27.54	2.68079
27.55	2.67027
27.56	2.6729
27.57	2.6729
27.58	2.68803
27.59	2.69592
27.6	2.70316
27.61	2.69132
27.62	2.69132
27.63	2.68671
27.64	2.68737
27.65	2.64559
27.66	2.67323
27.67	2.68803
27.68	2.68244
27.69	2.66632
27.7	2.6775
27.71	2.70218
27.72	2.66994
27.73	2.70185
27.74	2.68342
27.75	2.6729
27.76	2.68178
27.77	2.67685
27.78	2.6877
27.79	2.6729
27.8	2.66829
27.81	2.70744
27.82	2.69889
27.83	2.68639
27.84	2.67454
27.85	2.66369
27.86	2.6854
27.87	2.7081
27.88	2.68606
27.89	2.68145
27.9	2.66434
27.91	2.68178
27.92	2.69658
27.93	2.68441
27.94	2.69921
27.95	2.70218
27.96	2.6979
27.97	2.69527
27.98	2.68112
27.99	2.68967
28	2.67948
28.01	2.69198
28.02	2.7127
28.03	2.68013
28.04	2.64296
28.05	2.68046
28.06	2.70053
28.07	2.67816
28.08	2.65678
28.09	2.67717
28.1	2.65415
28.11	2.66632
28.12	2.70481
28.13	2.73902
28.14	2.68474
28.15	2.68836
28.16	2.69
28.17	2.66369
28.18	2.67224
28.19	2.6729
28.2	2.665
28.21	2.69
28.22	2.68277
28.23	2.65546
28.24	2.68079
28.25	2.69625
28.26	2.70283
28.27	2.70612
28.28	2.65941
28.29	2.69264
28.3	2.66862
28.31	2.6604
28.32	2.66928
28.33	2.69625
28.34	2.67619
28.35	2.66796
28.36	2.66073
28.37	2.67915
28.38	2.66665
28.39	2.67981
28.4	2.64494
28.41	2.68145
28.42	2.68145
28.43	2.68211
28.44	2.66303
28.45	2.6502
28.46	2.66566
28.47	2.67454
28.48	2.68803
28.49	2.68573
28.5	2.67981
28.51	2.68079
28.52	2.66402
28.53	2.6729
28.54	2.72981
28.55	2.71895
28.56	2.70514
28.57	2.66862
28.58	2.68375
28.59	2.67783
28.6	2.65382
28.61	2.68639
28.62	2.67454
28.63	2.67685
28.64	2.66731
28.65	2.70218
28.66	2.69329
28.67	2.69954
28.68	2.66862
28.69	2.65777
28.7	2.67421
28.71	2.69198
28.72	2.68606
28.73	2.65908
28.74	2.69428
28.75	2.65941
28.76	2.66007
28.77	2.65908
28.78	2.66698
28.79	2.70711
28.8	2.66336
28.81	2.65842
28.82	2.69033
28.83	2.7025
28.84	2.71073
28.85	2.70086
28.86	2.68803
28.87	2.67257
28.88	2.68277
28.89	2.66895
28.9	2.68704
28.91	2.67652
28.92	2.69724
28.93	2.69954
28.94	2.67619
28.95	2.69461
28.96	2.68869
28.97	2.6627
28.98	2.66106
28.99	2.66961
29	2.68671
29.01	2.6956
29.02	2.66402
29.03	2.67717
29.04	2.6706
29.05	2.69428
29.06	2.66336
29.07	2.65415
29.08	2.66434
29.09	2.65842
29.1	2.68112
29.11	2.6831
29.12	2.70448
29.13	2.66073
29.14	2.65481
29.15	2.66665
29.16	2.66467
29.17	2.68079
29.18	2.66007
29.19	2.69494
29.2	2.69691
29.21	2.68244
29.22	2.65513
29.23	2.65349
29.24	2.67323
29.25	2.67027
29.26	2.71961
29.27	2.68112
29.28	2.67388
29.29	2.67224
29.3	2.68836
29.31	2.68737
29.32	2.68737
29.33	2.68277
29.34	2.65184
29.35	2.665
29.36	2.68935
29.37	2.6877
29.38	2.69132
29.39	2.68408
29.4	2.68244
29.41	2.68342
29.42	2.66599
29.43	2.67652
29.44	2.65612
29.45	2.65119
29.46	2.65875
29.47	2.66336
29.48	2.69132
29.49	2.68737
29.5	2.70612
29.51	2.66303
29.52	2.69132
29.53	2.68573
29.54	2.68902
29.55	2.67553
29.56	2.64165
29.57	2.68046
29.58	2.68967
29.59	2.71171
29.6	2.66698
29.61	2.66862
29.62	2.68112
29.63	2.67849
29.64	2.68606
29.65	2.66566
29.66	2.67323
29.67	2.68277
29.68	2.67685
29.69	2.69264
29.7	2.66796
29.71	2.64296
29.72	2.68112
29.73	2.67257
29.74	2.67191
29.75	2.67487
29.76	2.69757
29.77	2.70711
29.78	2.68112
29.79	2.68967
29.8	2.68639
29.81	2.68408
29.82	2.67224
29.83	2.68145
29.84	2.7002
29.85	2.70218
29.86	2.66171
29.87	2.65744
29.88	2.65678
29.89	2.6706
29.9	2.6854
29.91	2.68408
29.92	2.68079
29.93	2.68441
29.94	2.70053
29.95	2.67981
29.96	2.66434
29.97	2.66402
29.98	2.70612
29.99	2.68474
30	2.66237
