"BIO-KINE ASCII FILE"
"_COMMENT"	"MOS-500 Spectrometer"
"_COMMENT"	"Kinetics measurement"
"_COMMENT"	"Y Unit : Volt,  X Unit : s"
"_COMMENT"	"Excitation wavelength : 380 nm"
"_COMMENT"	"Fentes bandwidth =  1 nm"
"_COMMENT"	"HV= 1000V"
"_COMMENT"	"Timebase  1 =  .01 s   5001 pts"
"_SFM"	"SFM-400 /S  Advanced mode"
"_SFM"	"Ratio : S1: 2.5, S2: 0, S3: 0, S4: 1"
"_SFM"	"Content : S1: , S2: , S3: , S4:"
"_SFM"	"Concentration : S1: , S2: , S3: , S4:"
"_SFM"	"Total volume : 209 µl  Flow : 3.5 mL/s"
"_SFM"	"Acquisition start :  10 ms before stop"
"_SFM"	"cuve=FC-15, s1=10 ml , s2=10 ml , s3=10 ml , s4=1.9 ml"
"_UNITX"	"s"
"_UNITY"	"Volt"
"_DELTAX"	0
"_DATA"
1e-300	2.65678
0.01	2.6229
0.02	2.61895
0.03	2.66763
0.04	2.71139
0.05	2.73145
0.06	2.74198
0.07	2.78507
0.08	2.82981
0.09	2.78606
0.1	2.7831
0.11	2.8002
0.12	2.81139
0.13	2.85975
0.14	2.8479
0.15	2.82356
0.16	2.82652
0.17	2.81731
0.18	2.85054
0.19	2.84823
0.2	2.85711
0.21	2.84198
0.22	2.85646
0.23	2.86238
0.24	2.83935
0.25	2.84231
0.26	2.83968
0.27	2.84034
0.28	2.85909
0.29	2.82356
0.3	2.82685
0.31	2.84593
0.32	2.86238
0.33	2.866
0.34	2.84856
0.35	2.85876
0.36	2.87981
0.37	2.88804
0.38	2.84823
0.39	2.8433
0.4	2.8535
0.41	2.84396
0.42	2.84067
0.43	2.85218
0.44	2.86336
0.45	2.84396
0.46	2.83606
0.47	2.84527
0.48	2.89659
0.49	2.8706
0.5	2.84461
0.51	2.84659
0.52	2.83277
0.53	2.83672
0.54	2.85547
0.55	2.85054
0.56	2.86731
0.57	2.86336
0.58	2.85909
0.59	2.87981
0.6	2.88968
0.61	2.88047
0.62	2.84264
0.63	2.84527
0.64	2.83672
0.65	2.83672
0.66	2.8331
0.67	2.84461
0.68	2.86929
0.69	2.83343
0.7	2.82817
0.71	2.85711
0.72	2.86764
0.73	2.84231
0.74	2.83836
0.75	2.82192
0.76	2.81073
0.77	2.82257
0.78	2.83409
0.79	2.83475
0.8	2.84001
0.81	2.86304
0.82	2.84198
0.83	2.84527
0.84	2.82817
0.85	2.84494
0.86	2.82356
0.87	2.8785
0.88	2.86106
0.89	2.83639
0.9	2.85086
0.91	2.84889
0.92	2.83244
0.93	2.8206
0.94	2.84396
0.95	2.85514
0.96	2.86336
0.97	2.80613
0.98	2.85284
0.99	2.83738
1	2.85777
1.01	2.84823
1.02	2.86468
1.03	2.84297
1.04	2.8433
1.05	2.82619
1.06	2.83935
1.07	2.84297
1.08	2.86501
1.09	2.84231
1.1	2.84034
1.11	2.84297
1.12	2.8308
1.13	2.83836
1.14	2.83935
1.15	2.841
1.16	2.86896
1.17	2.84725
1.18	2.84922
1.19	2.84692
1.2	2.83178
1.21	2.84429
1.22	2.81106
1.23	2.83573
1.24	2.81961
1.25	2.84396
1.26	2.82817
1.27	2.83639
1.28	2.84692
1.29	2.83014
1.3	2.81961
1.31	2.82027
1.32	2.85514
1.33	2.85185
1.34	2.84429
1.35	2.83935
1.36	2.83178
1.37	2.81632
1.38	2.84889
1.39	2.83672
1.4	2.83113
1.41	2.82356
1.42	2.81698
1.43	2.85152
1.44	2.86073
1.45	2.8433
1.46	2.80744
1.47	2.83573
1.48	2.7956
1.49	2.7979
1.5	2.81567
1.51	2.8433
1.52	2.82718
1.53	2.81468
1.54	2.81928
1.55	2.84494
1.56	2.8706
1.57	2.83376
1.58	2.85086
1.59	2.82093
1.6	2.86633
1.61	2.85514
1.62	2.81106
1.63	2.83771
1.64	2.8354
1.65	2.86139
1.66	2.81172
1.67	2.83803
1.68	2.83178
1.69	2.83014
1.7	2.83803
1.71	2.84593
1.72	2.86731
1.73	2.81863
1.74	2.79659
1.75	2.82586
1.76	2.85382
1.77	2.85382
1.78	2.84626
1.79	2.82126
1.8	2.8285
1.81	2.81567
1.82	2.81863
1.83	2.82323
1.84	2.82784
1.85	2.82027
1.86	2.84955
1.87	2.81764
1.88	2.83968
1.89	2.83178
1.9	2.85975
1.91	2.83869
1.92	2.81961
1.93	2.83573
1.94	2.82126
1.95	2.83409
1.96	2.84165
1.97	2.81468
1.98	2.83803
1.99	2.83507
2	2.8604
2.01	2.82126
2.02	2.84659
2.03	2.86106
2.04	2.86008
2.05	2.8433
2.06	2.85514
2.07	2.82784
2.08	2.83738
2.09	2.80284
2.1	2.79527
2.11	2.79889
2.12	2.79724
2.13	2.78441
2.14	2.83277
2.15	2.81271
2.16	2.81961
2.17	2.79593
2.18	2.84198
2.19	2.80349
2.2	2.77816
2.21	2.82521
2.22	2.81928
2.23	2.82652
2.24	2.81698
2.25	2.81106
2.26	2.79231
2.27	2.83573
2.28	2.85021
2.29	2.82817
2.3	2.79395
2.31	2.80152
2.32	2.81369
2.33	2.82521
2.34	2.8058
2.35	2.81928
2.36	2.79724
2.37	2.80349
2.38	2.81402
2.39	2.82224
2.4	2.85909
2.41	2.80317
2.42	2.79757
2.43	2.83376
2.44	2.80349
2.45	2.84001
2.46	2.84988
2.47	2.82389
2.48	2.80481
2.49	2.80086
2.5	2.82553
2.51	2.82323
2.52	2.81402
2.53	2.78738
2.54	2.8002
2.55	2.79692
2.56	2.80613
2.57	2.78113
2.58	2.8104
2.59	2.83343
2.6	2.79955
2.61	2.8081
2.62	2.81896
2.63	2.83014
2.64	2.81238
2.65	2.79922
2.66	2.81303
2.67	2.81501
2.68	2.80251
2.69	2.77586
2.7	2.79955
2.71	2.81238
2.72	2.76764
2.73	2.79297
2.74	2.78902
2.75	2.83178
2.76	2.82159
2.77	2.82422
2.78	2.83376
2.79	2.84659
2.8	2.83343
2.81	2.8058
2.82	2.81238
2.83	2.82356
2.84	2.83277
2.85	2.83277
2.86	2.79231
2.87	2.80613
2.88	2.79461
2.89	2.80645
2.9	2.83771
2.91	2.80678
2.92	2.78935
2.93	2.80909
2.94	2.80777
2.95	2.82027
2.96	2.79428
2.97	2.81369
2.98	2.83113
2.99	2.82323
3	2.80448
3.01	2.7956
3.02	2.78507
3.03	2.78047
3.04	2.8058
3.05	2.81896
3.06	2.83968
3.07	2.81238
3.08	2.79593
3.09	2.83211
3.1	2.78803
3.11	2.82159
3.12	2.8104
3.13	2.80744
3.14	2.80152
3.15	2.79297
3.16	2.8229
3.17	2.83409
3.18	2.81435
3.19	2.79955
3.2	2.79692
3.21	2.79856
3.22	2.80415
3.23	2.80744
3.24	2.79626
3.25	2.80678
3.26	2.78277
3.27	2.8206
3.28	2.83178
3.29	2.79363
3.3	2.78014
3.31	2.79395
3.32	2.80744
3.33	2.7752
3.34	2.8104
3.35	2.80711
3.36	2.80843
3.37	2.81007
3.38	2.7854
3.39	2.7877
3.4	2.81698
3.41	2.79264
3.42	2.81336
3.43	2.78738
3.44	2.80876
3.45	2.80086
3.46	2.80942
3.47	2.79955
3.48	2.81599
3.49	2.83507
3.5	2.78935
3.51	2.81698
3.52	2.7933
3.53	2.80645
3.54	2.82553
3.55	2.79527
3.56	2.8081
3.57	2.79922
3.58	2.77455
3.59	2.79856
3.6	2.76402
3.61	2.79922
3.62	2.79955
3.63	2.81303
3.64	2.7854
3.65	2.8081
3.66	2.79757
3.67	2.78902
3.68	2.78014
3.69	2.81369
3.7	2.79757
3.71	2.79231
3.72	2.79297
3.73	2.79889
3.74	2.80613
3.75	2.7808
3.76	2.77619
3.77	2.80777
3.78	2.81303
3.79	2.7854
3.8	2.80086
3.81	2.81073
3.82	2.80086
3.83	2.79527
3.84	2.77323
3.85	2.78836
3.86	2.77093
3.87	2.8081
3.88	2.78178
3.89	2.7933
3.9	2.77882
3.91	2.79461
3.92	2.77652
3.93	2.80744
3.94	2.81402
3.95	2.79395
3.96	2.80284
3.97	2.81764
3.98	2.79001
3.99	2.78441
4	2.7877
4.01	2.77323
4.02	2.80185
4.03	2.79626
4.04	2.78935
4.05	2.79395
4.06	2.81797
4.07	2.77191
4.08	2.83869
4.09	2.79198
4.1	2.74889
4.11	2.78047
4.12	2.79757
4.13	2.76007
4.14	2.77487
4.15	2.78869
4.16	2.77191
4.17	2.78343
4.18	2.7831
4.19	2.75448
4.2	2.83178
4.21	2.80152
4.22	2.8104
4.23	2.76139
4.24	2.78738
4.25	2.79001
4.26	2.78869
4.27	2.83146
4.28	2.80711
4.29	2.81139
4.3	2.82323
4.31	2.81369
4.32	2.79724
4.33	2.7979
4.34	2.7877
4.35	2.78244
4.36	2.76599
4.37	2.79724
4.38	2.76862
4.39	2.75448
4.4	2.79593
4.41	2.80909
4.42	2.76007
4.43	2.78869
4.44	2.78672
4.45	2.80251
4.46	2.79428
4.47	2.76862
4.48	2.78672
4.49	2.79264
4.5	2.80152
4.51	2.77389
4.52	2.7877
4.53	2.80284
4.54	2.79889
4.55	2.80218
4.56	2.79724
4.57	2.81007
4.58	2.8002
4.59	2.79823
4.6	2.80349
4.61	2.82422
4.62	2.7808
4.63	2.77257
4.64	2.78474
4.65	2.78935
4.66	2.79692
4.67	2.78968
4.68	2.81961
4.69	2.78935
4.7	2.77751
4.71	2.79066
4.72	2.78474
4.73	2.79001
4.74	2.78474
4.75	2.77619
4.76	2.7729
4.77	2.77487
4.78	2.80777
4.79	2.80547
4.8	2.81961
4.81	2.79165
4.82	2.77718
4.83	2.77191
4.84	2.80152
4.85	2.78869
4.86	2.78014
4.87	2.76501
4.88	2.79363
4.89	2.75316
4.9	2.73145
4.91	2.76994
4.92	2.78935
4.93	2.79692
4.94	2.79165
4.95	2.7808
4.96	2.80317
4.97	2.78803
4.98	2.82718
4.99	2.78014
5	2.7831
5.01	2.79757
5.02	2.76468
5.03	2.78803
5.04	2.80645
5.05	2.79099
5.06	2.82882
5.07	2.78343
5.08	2.76106
5.09	2.75053
5.1	2.77849
5.11	2.78968
5.12	2.74922
5.13	2.79165
5.14	2.82027
5.15	2.78573
5.16	2.7933
5.17	2.76534
5.18	2.76534
5.19	2.78968
5.2	2.79527
5.21	2.79099
5.22	2.81567
5.23	2.78573
5.24	2.78211
5.25	2.76764
5.26	2.75514
5.27	2.79231
5.28	2.80053
5.29	2.77849
5.3	2.79034
5.31	2.75843
5.32	2.7604
5.33	2.78968
5.34	2.77652
5.35	2.77948
5.36	2.77751
5.37	2.79922
5.38	2.79264
5.39	2.77455
5.4	2.73737
5.41	2.78606
5.42	2.78441
5.43	2.75908
5.44	2.76566
5.45	2.75744
5.46	2.77093
5.47	2.79231
5.48	2.7558
5.49	2.80251
5.5	2.81994
5.51	2.80514
5.52	2.7877
5.53	2.75744
5.54	2.80942
5.55	2.80876
5.56	2.78836
5.57	2.7627
5.58	2.78211
5.59	2.79494
5.6	2.76435
5.61	2.78014
5.62	2.7808
5.63	2.81369
5.64	2.79165
5.65	2.80119
5.66	2.79066
5.67	2.77751
5.68	2.77882
5.69	2.73704
5.7	2.77487
5.71	2.77652
5.72	2.80547
5.73	2.80284
5.74	2.77948
5.75	2.81863
5.76	2.79494
5.77	2.77323
5.78	2.76566
5.79	2.78672
5.8	2.7831
5.81	2.79099
5.82	2.79395
5.83	2.77487
5.84	2.78705
5.85	2.78277
5.86	2.75974
5.87	2.75908
5.88	2.78441
5.89	2.80218
5.9	2.77586
5.91	2.77487
5.92	2.79889
5.93	2.7956
5.94	2.75251
5.95	2.76961
5.96	2.78014
5.97	2.78738
5.98	2.80317
5.99	2.7808
6	2.76698
6.01	2.77422
6.02	2.78376
6.03	2.7877
6.04	2.77948
6.05	2.79165
6.06	2.80744
6.07	2.78869
6.08	2.75316
6.09	2.75645
6.1	2.79395
6.11	2.78935
6.12	2.76303
6.13	2.7604
6.14	2.79363
6.15	2.77981
6.16	2.77718
6.17	2.74264
6.18	2.76172
6.19	2.77784
6.2	2.79132
6.21	2.78409
6.22	2.76928
6.23	2.77191
6.24	2.79659
6.25	2.7683
6.26	2.78014
6.27	2.80317
6.28	2.78507
6.29	2.77422
6.3	2.75283
6.31	2.78343
6.32	2.77455
6.33	2.7729
6.34	2.74626
6.35	2.76862
6.36	2.80645
6.37	2.77455
6.38	2.7854
6.39	2.77652
6.4	2.75514
6.41	2.73737
6.42	2.78047
6.43	2.7627
6.44	2.74823
6.45	2.75448
6.46	2.77882
6.47	2.76928
6.48	2.74297
6.49	2.74724
6.5	2.77356
6.51	2.75974
6.52	2.76106
6.53	2.77191
6.54	2.77849
6.55	2.76895
6.56	2.77455
6.57	2.74955
6.58	2.80119
6.59	2.76961
6.6	2.7479
6.61	2.78409
6.62	2.79988
6.63	2.74889
6.64	2.76007
6.65	2.7808
6.66	2.75349
6.67	2.7502
6.68	2.74395
6.69	2.78573
6.7	2.7808
6.71	2.75251
6.72	2.77948
6.73	2.78277
6.74	2.80481
6.75	2.77915
6.76	2.73639
6.77	2.75349
6.78	2.76599
6.79	2.76237
6.8	2.77487
6.81	2.78803
6.82	2.79099
6.83	2.74297
6.84	2.76534
6.85	2.75974
6.86	2.7479
6.87	2.7229
6.88	2.76435
6.89	2.74593
6.9	2.74132
6.91	2.76632
6.92	2.7808
6.93	2.79132
6.94	2.77652
6.95	2.76994
6.96	2.76303
6.97	2.76007
6.98	2.75876
6.99	2.78343
7	2.78639
7.01	2.75218
7.02	2.75843
7.03	2.79132
7.04	2.78935
7.05	2.75514
7.06	2.76566
7.07	2.76303
7.08	2.77685
7.09	2.76632
7.1	2.77849
7.11	2.78902
7.12	2.78705
7.13	2.77422
7.14	2.75349
7.15	2.78441
7.16	2.79001
7.17	2.74856
7.18	2.74395
7.19	2.74264
7.2	2.75316
7.21	2.76961
7.22	2.77356
7.23	2.74691
7.24	2.76599
7.25	2.79659
7.26	2.78014
7.27	2.78277
7.28	2.77784
7.29	2.78672
7.3	2.77718
7.31	2.76534
7.32	2.78968
7.33	2.7683
7.34	2.78277
7.35	2.76435
7.36	2.77652
7.37	2.7808
7.38	2.78968
7.39	2.7377
7.4	2.75678
7.41	2.79428
7.42	2.79494
7.43	2.78869
7.44	2.76961
7.45	2.74033
7.46	2.77784
7.47	2.76764
7.48	2.76764
7.49	2.7683
7.5	2.7706
7.51	2.7581
7.52	2.76369
7.53	2.77422
7.54	2.76106
7.55	2.74264
7.56	2.76698
7.57	2.76237
7.58	2.74724
7.59	2.75974
7.6	2.73737
7.61	2.74132
7.62	2.75382
7.63	2.74132
7.64	2.75218
7.65	2.75711
7.66	2.75053
7.67	2.7558
7.68	2.78343
7.69	2.77422
7.7	2.77849
7.71	2.76731
7.72	2.76928
7.73	2.77553
7.74	2.77487
7.75	2.7729
7.76	2.78606
7.77	2.74955
7.78	2.74165
7.79	2.7729
7.8	2.77619
7.81	2.74297
7.82	2.75678
7.83	2.74428
7.84	2.75908
7.85	2.7558
7.86	2.76205
7.87	2.75448
7.88	2.77126
7.89	2.74264
7.9	2.7683
7.91	2.7854
7.92	2.76237
7.93	2.76928
7.94	2.76764
7.95	2.7604
7.96	2.78606
7.97	2.77751
7.98	2.74691
7.99	2.72816
8	2.76928
8.01	2.75086
8.02	2.75514
8.03	2.72454
8.04	2.76435
8.05	2.77882
8.06	2.77455
8.07	2.75382
8.08	2.76205
8.09	2.77652
8.1	2.7831
8.11	2.7752
8.12	2.75086
8.13	2.76435
8.14	2.77159
8.15	2.76731
8.16	2.76698
8.17	2.72849
8.18	2.7581
8.19	2.75481
8.2	2.7706
8.21	2.77191
8.22	2.73244
8.23	2.76599
8.24	2.77948
8.25	2.76172
8.26	2.74231
8.27	2.76731
8.28	2.78869
8.29	2.75711
8.3	2.79231
8.31	2.77159
8.32	2.74757
8.33	2.76895
8.34	2.77784
8.35	2.7706
8.36	2.76928
8.37	2.77389
8.38	2.76764
8.39	2.75053
8.4	2.78803
8.41	2.75777
8.42	2.7252
8.43	2.7354
8.44	2.77553
8.45	2.7877
8.46	2.76599
8.47	2.75744
8.48	2.76961
8.49	2.75251
8.5	2.7627
8.51	2.72191
8.52	2.73573
8.53	2.76073
8.54	2.74395
8.55	2.74395
8.56	2.73079
8.57	2.76468
8.58	2.79001
8.59	2.76501
8.6	2.76336
8.61	2.75053
8.62	2.7706
8.63	2.76435
8.64	2.71895
8.65	2.71566
8.66	2.75415
8.67	2.7627
8.68	2.77389
8.69	2.77126
8.7	2.75941
8.71	2.73968
8.72	2.76139
8.73	2.75711
8.74	2.75612
8.75	2.74955
8.76	2.76007
8.77	2.75152
8.78	2.74626
8.79	2.7354
8.8	2.77191
8.81	2.77619
8.82	2.74757
8.83	2.77882
8.84	2.78968
8.85	2.76731
8.86	2.75316
8.87	2.79198
8.88	2.77619
8.89	2.74823
8.9	2.74527
8.91	2.7275
8.92	2.75481
8.93	2.73803
8.94	2.74658
8.95	2.76599
8.96	2.74889
8.97	2.76566
8.98	2.76599
8.99	2.75941
9	2.75777
9.01	2.72849
9.02	2.75448
9.03	2.8002
9.04	2.77455
9.05	2.72553
9.06	2.75908
9.07	2.75349
9.08	2.75316
9.09	2.79757
9.1	2.7706
9.11	2.76632
9.12	2.74132
9.13	2.7377
9.14	2.74494
9.15	2.74132
9.16	2.74001
9.17	2.7502
9.18	2.77981
9.19	2.7275
9.2	2.74691
9.21	2.75185
9.22	2.7683
9.23	2.78277
9.24	2.7604
9.25	2.71994
9.26	2.74231
9.27	2.75908
9.28	2.74428
9.29	2.78409
9.3	2.75711
9.31	2.74658
9.32	2.74987
9.33	2.75152
9.34	2.73902
9.35	2.73639
9.36	2.74494
9.37	2.74724
9.38	2.7706
9.39	2.76369
9.4	2.76928
9.41	2.76599
9.42	2.75382
9.43	2.75316
9.44	2.7831
9.45	2.74889
9.46	2.75415
9.47	2.75283
9.48	2.76435
9.49	2.79494
9.5	2.77257
9.51	2.74395
9.52	2.73047
9.53	2.7377
9.54	2.74428
9.55	2.77389
9.56	2.75283
9.57	2.76007
9.58	2.76994
9.59	2.78376
9.6	2.7808
9.61	2.78869
9.62	2.76468
9.63	2.76139
9.64	2.77093
9.65	2.78047
9.66	2.74922
9.67	2.76468
9.68	2.76237
9.69	2.77915
9.7	2.75612
9.71	2.75086
9.72	2.73178
9.73	2.74658
9.74	2.74527
9.75	2.74922
9.76	2.7683
9.77	2.72849
9.78	2.76599
9.79	2.7729
9.8	2.78507
9.81	2.75251
9.82	2.76994
9.83	2.7877
9.84	2.76303
9.85	2.7479
9.86	2.76336
9.87	2.76764
9.88	2.7831
9.89	2.75876
9.9	2.75218
9.91	2.75448
9.92	2.72652
9.93	2.75843
9.94	2.73672
9.95	2.74001
9.96	2.74461
9.97	2.75218
9.98	2.75876
9.99	2.74066
10	2.7479
10.01	2.73573
10.02	2.73474
10.03	2.76237
10.04	2.76205
10.05	2.74626
10.06	2.76468
10.07	2.77619
10.08	2.7604
10.09	2.74889
10.1	2.76534
10.11	2.75974
10.12	2.76928
10.13	2.73869
10.14	2.74231
10.15	2.75547
10.16	2.76632
10.17	2.75283
10.18	2.78178
10.19	2.75514
10.2	2.75777
10.21	2.74033
10.22	2.74099
10.23	2.75744
10.24	2.73803
10.25	2.75053
10.26	2.73869
10.27	2.73408
10.28	2.75283
10.29	2.75349
10.3	2.72652
10.31	2.76369
10.32	2.74889
10.33	2.75777
10.34	2.7581
10.35	2.75382
10.36	2.74823
10.37	2.74099
10.38	2.74626
10.39	2.75349
10.4	2.74165
10.41	2.76862
10.42	2.72323
10.43	2.75251
10.44	2.75283
10.45	2.7331
10.46	2.73968
10.47	2.75744
10.48	2.74922
10.49	2.75251
10.5	2.70579
10.51	2.74691
10.52	2.76007
10.53	2.74362
10.54	2.70744
10.55	2.73145
10.56	2.74593
10.57	2.75612
10.58	2.75744
10.59	2.75547
10.6	2.77257
10.61	2.76435
10.62	2.70382
10.63	2.69527
10.64	2.74626
10.65	2.72882
10.66	2.75678
10.67	2.74132
10.68	2.76665
10.69	2.78343
10.7	2.74329
10.71	2.70316
10.72	2.74889
10.73	2.75481
10.74	2.74626
10.75	2.72191
10.76	2.73573
10.77	2.75678
10.78	2.73672
10.79	2.73211
10.8	2.73672
10.81	2.69823
10.82	2.70875
10.83	2.71599
10.84	2.74691
10.85	2.74001
10.86	2.71698
10.87	2.72981
10.88	2.74395
10.89	2.75415
10.9	2.71303
10.91	2.72718
10.92	2.75152
10.93	2.74724
10.94	2.74001
10.95	2.76928
10.96	2.76764
10.97	2.7502
10.98	2.76468
10.99	2.73869
11	2.75547
11.01	2.79988
11.02	2.73902
11.03	2.71369
11.04	2.76402
11.05	2.76961
11.06	2.75547
11.07	2.73902
11.08	2.75086
11.09	2.7479
11.1	2.74297
11.11	2.75547
11.12	2.74823
11.13	2.74856
11.14	2.72454
11.15	2.73507
11.16	2.7502
11.17	2.78836
11.18	2.74198
11.19	2.73573
11.2	2.74823
11.21	2.74165
11.22	2.75185
11.23	2.76534
11.24	2.75514
11.25	2.75251
11.26	2.74757
11.27	2.71862
11.28	2.715
11.29	2.71928
11.3	2.73803
11.31	2.73211
11.32	2.73935
11.33	2.74955
11.34	2.74955
11.35	2.73672
11.36	2.73737
11.37	2.74856
11.38	2.71402
11.39	2.73474
11.4	2.72849
11.41	2.7275
11.42	2.73737
11.43	2.75382
11.44	2.74494
11.45	2.72191
11.46	2.7025
11.47	2.72224
11.48	2.73014
11.49	2.73704
11.5	2.72422
11.51	2.73047
11.52	2.73408
11.53	2.73968
11.54	2.74231
11.55	2.74494
11.56	2.71599
11.57	2.72224
11.58	2.74362
11.59	2.75119
11.6	2.74527
11.61	2.76599
11.62	2.76895
11.63	2.73968
11.64	2.72257
11.65	2.74428
11.66	2.73112
11.67	2.74856
11.68	2.77093
11.69	2.76665
11.7	2.75908
11.71	2.77553
11.72	2.74494
11.73	2.74461
11.74	2.75744
11.75	2.77422
11.76	2.74658
11.77	2.74264
11.78	2.77389
11.79	2.76665
11.8	2.73902
11.81	2.74461
11.82	2.73803
11.83	2.75744
11.84	2.7627
11.85	2.74362
11.86	2.76599
11.87	2.73244
11.88	2.7331
11.89	2.78145
11.9	2.76073
11.91	2.75678
11.92	2.77159
11.93	2.75119
11.94	2.74494
11.95	2.74823
11.96	2.76797
11.97	2.7252
11.98	2.72685
11.99	2.74395
12	2.73145
12.01	2.75645
12.02	2.75514
12.03	2.73408
12.04	2.7377
12.05	2.74297
12.06	2.74198
12.07	2.72422
12.08	2.73803
12.09	2.75185
12.1	2.75843
12.11	2.7252
12.12	2.7229
12.13	2.71073
12.14	2.73869
12.15	2.71665
12.16	2.74132
12.17	2.7331
12.18	2.77487
12.19	2.74033
12.2	2.75086
12.21	2.73343
12.22	2.73343
12.23	2.74724
12.24	2.74987
12.25	2.77422
12.26	2.75843
12.27	2.73968
12.28	2.76566
12.29	2.76928
12.3	2.75678
12.31	2.76731
12.32	2.75547
12.33	2.74297
12.34	2.71797
12.35	2.73408
12.36	2.74428
12.37	2.75974
12.38	2.75251
12.39	2.73704
12.4	2.73014
12.41	2.73474
12.42	2.73047
12.43	2.72125
12.44	2.75349
12.45	2.77257
12.46	2.73639
12.47	2.7377
12.48	2.71303
12.49	2.71435
12.5	2.71468
12.51	2.73968
12.52	2.76139
12.53	2.74198
12.54	2.73639
12.55	2.73902
12.56	2.74955
12.57	2.74856
12.58	2.76994
12.59	2.76862
12.6	2.75514
12.61	2.73343
12.62	2.75382
12.63	2.7706
12.64	2.7706
12.65	2.75316
12.66	2.74099
12.67	2.72783
12.68	2.70941
12.69	2.72783
12.7	2.73277
12.71	2.7456
12.72	2.7479
12.73	2.73672
12.74	2.7229
12.75	2.72586
12.76	2.73704
12.77	2.75349
12.78	2.75908
12.79	2.74066
12.8	2.75283
12.81	2.7456
12.82	2.76336
12.83	2.72718
12.84	2.72882
12.85	2.73968
12.86	2.7331
12.87	2.74132
12.88	2.74297
12.89	2.74001
12.9	2.71468
12.91	2.74658
12.92	2.76566
12.93	2.7252
12.94	2.78441
12.95	2.77487
12.96	2.7275
12.97	2.73244
12.98	2.73178
12.99	2.73968
13	2.74955
13.01	2.78244
13.02	2.72158
13.03	2.71106
13.04	2.73079
13.05	2.72487
13.06	2.76139
13.07	2.7604
13.08	2.7706
13.09	2.76961
13.1	2.74823
13.11	2.76139
13.12	2.7558
13.13	2.73211
13.14	2.73244
13.15	2.74264
13.16	2.74264
13.17	2.7331
13.18	2.74823
13.19	2.75448
13.2	2.76172
13.21	2.72915
13.22	2.74527
13.23	2.75744
13.24	2.74001
13.25	2.7354
13.26	2.73441
13.27	2.72389
13.28	2.73902
13.29	2.77191
13.3	2.73573
13.31	2.71928
13.32	2.75382
13.33	2.7683
13.34	2.76862
13.35	2.74099
13.36	2.74527
13.37	2.72816
13.38	2.74264
13.39	2.73014
13.4	2.71994
13.41	2.74757
13.42	2.72783
13.43	2.74626
13.44	2.72718
13.45	2.71764
13.46	2.73606
13.47	2.715
13.48	2.72553
13.49	2.7229
13.5	2.73737
13.51	2.75152
13.52	2.77784
13.53	2.75382
13.54	2.75514
13.55	2.70678
13.56	2.72816
13.57	2.74724
13.58	2.74856
13.59	2.74987
13.6	2.73376
13.61	2.72553
13.62	2.72783
13.63	2.7558
13.64	2.73803
13.65	2.73376
13.66	2.75941
13.67	2.70579
13.68	2.76468
13.69	2.72981
13.7	2.71797
13.71	2.74823
13.72	2.74461
13.73	2.72553
13.74	2.75876
13.75	2.73343
13.76	2.77751
13.77	2.75777
13.78	2.73803
13.79	2.7331
13.8	2.75152
13.81	2.7581
13.82	2.73902
13.83	2.74626
13.84	2.74856
13.85	2.715
13.86	2.77751
13.87	2.75711
13.88	2.73704
13.89	2.71139
13.9	2.71665
13.91	2.73014
13.92	2.72981
13.93	2.7354
13.94	2.71928
13.95	2.72948
13.96	2.75415
13.97	2.75678
13.98	2.76007
13.99	2.78507
14	2.73047
14.01	2.73737
14.02	2.75908
14.03	2.72652
14.04	2.70185
14.05	2.71303
14.06	2.73244
14.07	2.72125
14.08	2.73737
14.09	2.73704
14.1	2.71435
14.11	2.71797
14.12	2.74329
14.13	2.73244
14.14	2.74033
14.15	2.73935
14.16	2.72224
14.17	2.73836
14.18	2.74395
14.19	2.71237
14.2	2.74165
14.21	2.72191
14.22	2.73244
14.23	2.73606
14.24	2.7002
14.25	2.71139
14.26	2.72093
14.27	2.73277
14.28	2.72389
14.29	2.72849
14.3	2.73606
14.31	2.7604
14.32	2.74922
14.33	2.74889
14.34	2.73869
14.35	2.70908
14.36	2.72948
14.37	2.75415
14.38	2.72685
14.39	2.74264
14.4	2.74362
14.41	2.71435
14.42	2.72191
14.43	2.72191
14.44	2.71533
14.45	2.70415
14.46	2.73507
14.47	2.76139
14.48	2.72816
14.49	2.72586
14.5	2.71994
14.51	2.72816
14.52	2.72849
14.53	2.72356
14.54	2.74132
14.55	2.7502
14.56	2.73376
14.57	2.75349
14.58	2.74593
14.59	2.72356
14.6	2.7581
14.61	2.74395
14.62	2.73244
14.63	2.7025
14.64	2.72487
14.65	2.69428
14.66	2.71106
14.67	2.72323
14.68	2.74823
14.69	2.74856
14.7	2.74066
14.71	2.75744
14.72	2.75152
14.73	2.73704
14.74	2.72816
14.75	2.72783
14.76	2.75218
14.77	2.7252
14.78	2.74362
14.79	2.71369
14.8	2.74198
14.81	2.70481
14.82	2.70349
14.83	2.73441
14.84	2.71599
14.85	2.70185
14.86	2.71073
14.87	2.74231
14.88	2.72422
14.89	2.72685
14.9	2.73178
14.91	2.73836
14.92	2.71336
14.93	2.72553
14.94	2.75119
14.95	2.78376
14.96	2.73244
14.97	2.71764
14.98	2.70875
14.99	2.73277
15	2.75908
15.01	2.75119
15.02	2.71204
15.03	2.71829
15.04	2.71106
15.05	2.73672
15.06	2.74066
15.07	2.73836
15.08	2.73047
15.09	2.71303
15.1	2.74132
15.11	2.70744
15.12	2.75876
15.13	2.7581
15.14	2.72981
15.15	2.75316
15.16	2.74329
15.17	2.71171
15.18	2.71106
15.19	2.72981
15.2	2.71764
15.21	2.70843
15.22	2.69362
15.23	2.73672
15.24	2.74329
15.25	2.7275
15.26	2.70283
15.27	2.71994
15.28	2.72487
15.29	2.71402
15.3	2.73836
15.31	2.72224
15.32	2.73737
15.33	2.72257
15.34	2.73277
15.35	2.73178
15.36	2.74297
15.37	2.72981
15.38	2.73672
15.39	2.69625
15.4	2.70546
15.41	2.72816
15.42	2.71237
15.43	2.73244
15.44	2.73935
15.45	2.72882
15.46	2.71237
15.47	2.73211
15.48	2.73902
15.49	2.78014
15.5	2.72224
15.51	2.72849
15.52	2.72158
15.53	2.71994
15.54	2.7025
15.55	2.72619
15.56	2.74757
15.57	2.72652
15.58	2.73178
15.59	2.7502
15.6	2.73935
15.61	2.72816
15.62	2.72685
15.63	2.7025
15.64	2.72257
15.65	2.74362
15.66	2.7206
15.67	2.74362
15.68	2.74626
15.69	2.73277
15.7	2.71336
15.71	2.71895
15.72	2.70448
15.73	2.74428
15.74	2.72454
15.75	2.73277
15.76	2.74132
15.77	2.73639
15.78	2.72257
15.79	2.73639
15.8	2.72948
15.81	2.73836
15.82	2.70711
15.83	2.73376
15.84	2.71171
15.85	2.71764
15.86	2.73014
15.87	2.71468
15.88	2.71632
15.89	2.70283
15.9	2.73145
15.91	2.74395
15.92	2.7502
15.93	2.73047
15.94	2.71303
15.95	2.77849
15.96	2.70711
15.97	2.70711
15.98	2.73474
15.99	2.72915
16	2.72125
16.01	2.72454
16.02	2.70974
16.03	2.7354
16.04	2.75053
16.05	2.70941
16.06	2.7206
16.07	2.73112
16.08	2.73704
16.09	2.74165
16.1	2.71435
16.11	2.7206
16.12	2.75086
16.13	2.74264
16.14	2.74494
16.15	2.73474
16.16	2.74362
16.17	2.74593
16.18	2.7502
16.19	2.72718
16.2	2.72323
16.21	2.74231
16.22	2.74823
16.23	2.74494
16.24	2.74494
16.25	2.74001
16.26	2.75251
16.27	2.73902
16.28	2.7206
16.29	2.70382
16.3	2.70316
16.31	2.6979
16.32	2.70744
16.33	2.72981
16.34	2.73441
16.35	2.71665
16.36	2.70514
16.37	2.75908
16.38	2.73277
16.39	2.73211
16.4	2.70218
16.41	2.74001
16.42	2.74001
16.43	2.73902
16.44	2.74231
16.45	2.72553
16.46	2.73441
16.47	2.71665
16.48	2.70678
16.49	2.71797
16.5	2.7025
16.51	2.73737
16.52	2.71731
16.53	2.71106
16.54	2.74658
16.55	2.75514
16.56	2.7456
16.57	2.71862
16.58	2.73343
16.59	2.7502
16.6	2.72619
16.61	2.70218
16.62	2.72191
16.63	2.71895
16.64	2.70514
16.65	2.70678
16.66	2.70218
16.67	2.6956
16.68	2.72849
16.69	2.73408
16.7	2.7252
16.71	2.73244
16.72	2.73014
16.73	2.72652
16.74	2.72816
16.75	2.72454
16.76	2.71073
16.77	2.71698
16.78	2.74428
16.79	2.75612
16.8	2.73639
16.81	2.72257
16.82	2.71895
16.83	2.73507
16.84	2.74165
16.85	2.70645
16.86	2.74329
16.87	2.75514
16.88	2.73507
16.89	2.75876
16.9	2.73704
16.91	2.71303
16.92	2.73178
16.93	2.75119
16.94	2.7354
16.95	2.74955
16.96	2.71204
16.97	2.73014
16.98	2.71237
16.99	2.71961
17	2.73014
17.01	2.74132
17.02	2.73145
17.03	2.73639
17.04	2.70579
17.05	2.72389
17.06	2.71928
17.07	2.72224
17.08	2.70185
17.09	2.73178
17.1	2.72093
17.11	2.73672
17.12	2.71862
17.13	2.72389
17.14	2.70908
17.15	2.72553
17.16	2.74362
17.17	2.73803
17.18	2.69132
17.19	2.70185
17.2	2.69165
17.21	2.71698
17.22	2.71171
17.23	2.70316
17.24	2.69691
17.25	2.70152
17.26	2.70908
17.27	2.70974
17.28	2.71764
17.29	2.74494
17.3	2.71994
17.31	2.7627
17.32	2.72948
17.33	2.75481
17.34	2.71797
17.35	2.71928
17.36	2.73014
17.37	2.72816
17.38	2.72849
17.39	2.70514
17.4	2.72257
17.41	2.69296
17.42	2.72553
17.43	2.74264
17.44	2.72685
17.45	2.72487
17.46	2.69033
17.47	2.73507
17.48	2.73639
17.49	2.72224
17.5	2.74987
17.51	2.74658
17.52	2.72093
17.53	2.71764
17.54	2.69921
17.55	2.72948
17.56	2.76665
17.57	2.7252
17.58	2.72093
17.59	2.7331
17.6	2.72191
17.61	2.72783
17.62	2.75053
17.63	2.72586
17.64	2.73014
17.65	2.71731
17.66	2.69823
17.67	2.74461
17.68	2.74033
17.69	2.70185
17.7	2.71632
17.71	2.71698
17.72	2.71303
17.73	2.75777
17.74	2.72093
17.75	2.71797
17.76	2.72257
17.77	2.74132
17.78	2.70579
17.79	2.70711
17.8	2.7252
17.81	2.7331
17.82	2.71862
17.83	2.71731
17.84	2.72093
17.85	2.71468
17.86	2.74329
17.87	2.71435
17.88	2.71468
17.89	2.72783
17.9	2.73178
17.91	2.73112
17.92	2.73178
17.93	2.69329
17.94	2.70053
17.95	2.73079
17.96	2.7252
17.97	2.74658
17.98	2.73343
17.99	2.74856
18	2.72487
18.01	2.7002
18.02	2.69823
18.03	2.71369
18.04	2.69889
18.05	2.73606
18.06	2.73474
18.07	2.75119
18.08	2.74626
18.09	2.7002
18.1	2.72948
18.11	2.72915
18.12	2.73079
18.13	2.70218
18.14	2.69461
18.15	2.73112
18.16	2.74889
18.17	2.73606
18.18	2.73704
18.19	2.71764
18.2	2.7275
18.21	2.72981
18.22	2.71139
18.23	2.68046
18.24	2.70415
18.25	2.68803
18.26	2.715
18.27	2.7002
18.28	2.70514
18.29	2.73474
18.3	2.71402
18.31	2.72685
18.32	2.71961
18.33	2.7275
18.34	2.73573
18.35	2.7104
18.36	2.71928
18.37	2.70579
18.38	2.72487
18.39	2.71665
18.4	2.7377
18.41	2.75185
18.42	2.73737
18.43	2.70645
18.44	2.72158
18.45	2.73606
18.46	2.74264
18.47	2.74099
18.48	2.73606
18.49	2.71303
18.5	2.72816
18.51	2.70546
18.52	2.7275
18.53	2.71961
18.54	2.72882
18.55	2.71369
18.56	2.74297
18.57	2.70645
18.58	2.72093
18.59	2.73507
18.6	2.69724
18.61	2.6752
18.62	2.70415
18.63	2.69921
18.64	2.72816
18.65	2.74987
18.66	2.70612
18.67	2.70678
18.68	2.70645
18.69	2.72257
18.7	2.72323
18.71	2.75678
18.72	2.74889
18.73	2.72619
18.74	2.73704
18.75	2.74132
18.76	2.74428
18.77	2.74329
18.78	2.72586
18.79	2.7002
18.8	2.7558
18.81	2.74001
18.82	2.7331
18.83	2.7081
18.84	2.7331
18.85	2.73836
18.86	2.72685
18.87	2.74626
18.88	2.67685
18.89	2.70185
18.9	2.71829
18.91	2.73507
18.92	2.74362
18.93	2.72257
18.94	2.73112
18.95	2.76139
18.96	2.75053
18.97	2.74132
18.98	2.73441
18.99	2.73474
19	2.71895
19.01	2.69823
19.02	2.67586
19.03	2.70941
19.04	2.69494
19.05	2.73408
19.06	2.73968
19.07	2.7252
19.08	2.71468
19.09	2.69921
19.1	2.68935
19.11	2.69362
19.12	2.7127
19.13	2.72125
19.14	2.70579
19.15	2.70185
19.16	2.70843
19.17	2.70875
19.18	2.73343
19.19	2.7206
19.2	2.73211
19.21	2.72981
19.22	2.73474
19.23	2.74033
19.24	2.72652
19.25	2.74132
19.26	2.72849
19.27	2.74132
19.28	2.75744
19.29	2.71468
19.3	2.71731
19.31	2.75876
19.32	2.73408
19.33	2.73408
19.34	2.70579
19.35	2.71632
19.36	2.72191
19.37	2.73902
19.38	2.71731
19.39	2.73343
19.4	2.71961
19.41	2.71139
19.42	2.71007
19.43	2.72454
19.44	2.74329
19.45	2.69987
19.46	2.67454
19.47	2.70777
19.48	2.75086
19.49	2.73672
19.5	2.73014
19.51	2.72027
19.52	2.72422
19.53	2.71468
19.54	2.70843
19.55	2.71106
19.56	2.7081
19.57	2.73474
19.58	2.72619
19.59	2.75119
19.6	2.73704
19.61	2.69691
19.62	2.71204
19.63	2.74757
19.64	2.74099
19.65	2.73507
19.66	2.71665
19.67	2.71435
19.68	2.72323
19.69	2.70744
19.7	2.70218
19.71	2.75645
19.72	2.75283
19.73	2.73573
19.74	2.73507
19.75	2.72093
19.76	2.70119
19.77	2.69856
19.78	2.73869
19.79	2.71171
19.8	2.71336
19.81	2.73277
19.82	2.72454
19.83	2.70974
19.84	2.70283
19.85	2.75053
19.86	2.71566
19.87	2.70481
19.88	2.69592
19.89	2.69461
19.9	2.71106
19.91	2.69099
19.92	2.69658
19.93	2.71171
19.94	2.72257
19.95	2.74658
19.96	2.70415
19.97	2.71204
19.98	2.70283
19.99	2.72158
20	2.71994
20.01	2.72685
20.02	2.71369
20.03	2.76501
20.04	2.74001
20.05	2.69691
20.06	2.73672
20.07	2.72125
20.08	2.71764
20.09	2.7275
20.1	2.74066
20.11	2.71895
20.12	2.72816
20.13	2.72586
20.14	2.71862
20.15	2.71665
20.16	2.71895
20.17	2.69987
20.18	2.70678
20.19	2.72816
20.2	2.71895
20.21	2.71237
20.22	2.70744
20.23	2.7331
20.24	2.73112
20.25	2.71073
20.26	2.70152
20.27	2.72685
20.28	2.71402
20.29	2.72816
20.3	2.73737
20.31	2.70086
20.32	2.6775
20.33	2.71566
20.34	2.71139
20.35	2.71435
20.36	2.70711
20.37	2.72323
20.38	2.7377
20.39	2.73145
20.4	2.73672
20.41	2.73672
20.42	2.72882
20.43	2.7206
20.44	2.70908
20.45	2.6979
20.46	2.70086
20.47	2.72586
20.48	2.72422
20.49	2.71468
20.5	2.70481
20.51	2.6979
20.52	2.70316
20.53	2.73112
20.54	2.72718
20.55	2.73112
20.56	2.7275
20.57	2.73672
20.58	2.70481
20.59	2.71007
20.6	2.70843
20.61	2.71797
20.62	2.74165
20.63	2.76303
20.64	2.75876
20.65	2.74922
20.66	2.73014
20.67	2.75645
20.68	2.71994
20.69	2.71961
20.7	2.71435
20.71	2.72093
20.72	2.71632
20.73	2.69954
20.74	2.71829
20.75	2.73145
20.76	2.72422
20.77	2.69921
20.78	2.73836
20.79	2.73244
20.8	2.70415
20.81	2.71468
20.82	2.73573
20.83	2.72553
20.84	2.70152
20.85	2.66731
20.86	2.71468
20.87	2.70546
20.88	2.7581
20.89	2.74165
20.9	2.73737
20.91	2.69856
20.92	2.7229
20.93	2.69461
20.94	2.72224
20.95	2.74132
20.96	2.70415
20.97	2.70119
20.98	2.70316
20.99	2.7252
21	2.73376
21.01	2.74494
21.02	2.73376
21.03	2.73441
21.04	2.74132
21.05	2.73376
21.06	2.71961
21.07	2.72257
21.08	2.72191
21.09	2.70086
21.1	2.70875
21.11	2.70382
21.12	2.7104
21.13	2.67257
21.14	2.71204
21.15	2.715
21.16	2.71797
21.17	2.73474
21.18	2.72356
21.19	2.71533
21.2	2.70185
21.21	2.71533
21.22	2.69395
21.23	2.68112
21.24	2.74922
21.25	2.75612
21.26	2.69658
21.27	2.72586
21.28	2.71928
21.29	2.70316
21.3	2.71336
21.31	2.71533
21.32	2.72257
21.33	2.74132
21.34	2.70053
21.35	2.69527
21.36	2.73803
21.37	2.71566
21.38	2.69165
21.39	2.71435
21.4	2.72619
21.41	2.70744
21.42	2.70415
21.43	2.72652
21.44	2.72586
21.45	2.70514
21.46	2.7206
21.47	2.72718
21.48	2.70448
21.49	2.69724
21.5	2.71336
21.51	2.73277
21.52	2.72816
21.53	2.74231
21.54	2.7229
21.55	2.77948
21.56	2.7456
21.57	2.73507
21.58	2.72981
21.59	2.73704
21.6	2.73672
21.61	2.75645
21.62	2.71237
21.63	2.69527
21.64	2.71073
21.65	2.69527
21.66	2.7104
21.67	2.71007
21.68	2.71665
21.69	2.70514
21.7	2.71698
21.71	2.72125
21.72	2.74231
21.73	2.75876
21.74	2.74231
21.75	2.73408
21.76	2.71665
21.77	2.71961
21.78	2.70218
21.79	2.69428
21.8	2.71895
21.81	2.71468
21.82	2.71303
21.83	2.7104
21.84	2.73145
21.85	2.71237
21.86	2.67586
21.87	2.73639
21.88	2.74658
21.89	2.71566
21.9	2.73343
21.91	2.73211
21.92	2.69757
21.93	2.72191
21.94	2.73836
21.95	2.69987
21.96	2.7081
21.97	2.74033
21.98	2.68836
21.99	2.71468
22	2.70185
22.01	2.70843
22.02	2.71369
22.03	2.71073
22.04	2.72816
22.05	2.74593
22.06	2.70185
22.07	2.68441
22.08	2.69987
22.09	2.69691
22.1	2.7331
22.11	2.71764
22.12	2.71533
22.13	2.70908
22.14	2.77224
22.15	2.71829
22.16	2.72487
22.17	2.69461
22.18	2.72487
22.19	2.70579
22.2	2.69362
22.21	2.69691
22.22	2.69132
22.23	2.71533
22.24	2.71139
22.25	2.71533
22.26	2.70349
22.27	2.68935
22.28	2.71533
22.29	2.72356
22.3	2.71204
22.31	2.69823
22.32	2.67586
22.33	2.71336
22.34	2.7252
22.35	2.70481
22.36	2.67915
22.37	2.69889
22.38	2.72652
22.39	2.70875
22.4	2.7275
22.41	2.69823
22.42	2.70316
22.43	2.7331
22.44	2.73408
22.45	2.74165
22.46	2.70448
22.47	2.7502
22.48	2.74527
22.49	2.72783
22.5	2.74395
22.51	2.74001
22.52	2.68967
22.53	2.72948
22.54	2.74264
22.55	2.72586
22.56	2.71599
22.57	2.73014
22.58	2.73507
22.59	2.73704
22.6	2.69527
22.61	2.74428
22.62	2.75251
22.63	2.75185
22.64	2.7252
22.65	2.71731
22.66	2.71665
22.67	2.72948
22.68	2.72685
22.69	2.73606
22.7	2.71566
22.71	2.72882
22.72	2.72422
22.73	2.69428
22.74	2.70283
22.75	2.73803
22.76	2.71961
22.77	2.7025
22.78	2.71139
22.79	2.74395
22.8	2.76599
22.81	2.70152
22.82	2.68869
22.83	2.6979
22.84	2.69527
22.85	2.71994
22.86	2.73112
22.87	2.72454
22.88	2.69066
22.89	2.71797
22.9	2.70316
22.91	2.71764
22.92	2.71928
22.93	2.72323
22.94	2.71402
22.95	2.73376
22.96	2.71632
22.97	2.7127
22.98	2.70974
22.99	2.71336
23	2.72553
23.01	2.70382
23.02	2.71237
23.03	2.72981
23.04	2.73408
23.05	2.7002
23.06	2.71599
23.07	2.72224
23.08	2.72915
23.09	2.71764
23.1	2.70612
23.11	2.7104
23.12	2.72125
23.13	2.71731
23.14	2.7025
23.15	2.68704
23.16	2.72652
23.17	2.72158
23.18	2.68408
23.19	2.73606
23.2	2.71862
23.21	2.72487
23.22	2.74922
23.23	2.69889
23.24	2.73902
23.25	2.71171
23.26	2.74329
23.27	2.72882
23.28	2.71895
23.29	2.71171
23.3	2.72915
23.31	2.75744
23.32	2.74001
23.33	2.70941
23.34	2.72191
23.35	2.73047
23.36	2.7127
23.37	2.73606
23.38	2.71566
23.39	2.70875
23.4	2.72257
23.41	2.73737
23.42	2.72257
23.43	2.68639
23.44	2.69362
23.45	2.71533
23.46	2.71533
23.47	2.70481
23.48	2.72487
23.49	2.72422
23.5	2.72619
23.51	2.73968
23.52	2.72948
23.53	2.7275
23.54	2.71797
23.55	2.70645
23.56	2.72323
23.57	2.70843
23.58	2.70875
23.59	2.71961
23.6	2.73639
23.61	2.69362
23.62	2.7275
23.63	2.71731
23.64	2.71994
23.65	2.69889
23.66	2.72816
23.67	2.70875
23.68	2.70875
23.69	2.7354
23.7	2.71698
23.71	2.70612
23.72	2.68573
23.73	2.72257
23.74	2.72027
23.75	2.72553
23.76	2.69329
23.77	2.72224
23.78	2.69033
23.79	2.70941
23.8	2.73573
23.81	2.715
23.82	2.71139
23.83	2.68803
23.84	2.70349
23.85	2.69592
23.86	2.69691
23.87	2.66698
23.88	2.7104
23.89	2.74658
23.9	2.74329
23.91	2.71764
23.92	2.7206
23.93	2.73047
23.94	2.72783
23.95	2.70744
23.96	2.72257
23.97	2.70777
23.98	2.70974
23.99	2.72093
24	2.74099
24.01	2.71468
24.02	2.69724
24.03	2.69625
24.04	2.72487
24.05	2.69658
24.06	2.69198
24.07	2.71303
24.08	2.70546
24.09	2.73441
24.1	2.69757
24.11	2.715
24.12	2.71073
24.13	2.70349
24.14	2.72849
24.15	2.70152
24.16	2.71533
24.17	2.72125
24.18	2.71204
24.19	2.70546
24.2	2.70316
24.21	2.73014
24.22	2.72685
24.23	2.73869
24.24	2.73211
24.25	2.73112
24.26	2.72981
24.27	2.73935
24.28	2.7558
24.29	2.74461
24.3	2.70316
24.31	2.73112
24.32	2.71862
24.33	2.71862
24.34	2.71698
24.35	2.70711
24.36	2.70579
24.37	2.70448
24.38	2.70645
24.39	2.72652
24.4	2.71698
24.41	2.71731
24.42	2.71336
24.43	2.69921
24.44	2.71961
24.45	2.7127
24.46	2.71961
24.47	2.72027
24.48	2.68803
24.49	2.7025
24.5	2.73014
24.51	2.72158
24.52	2.7206
24.53	2.70086
24.54	2.68441
24.55	2.72783
24.56	2.6956
24.57	2.69987
24.58	2.71566
24.59	2.70185
24.6	2.73343
24.61	2.73244
24.62	2.73869
24.63	2.72685
24.64	2.7025
24.65	2.72158
24.66	2.73803
24.67	2.7354
24.68	2.71566
24.69	2.70843
24.7	2.68671
24.71	2.69691
24.72	2.71566
24.73	2.74066
24.74	2.74198
24.75	2.72586
24.76	2.70218
24.77	2.7081
24.78	2.72224
24.79	2.69987
24.8	2.70711
24.81	2.70612
24.82	2.69198
24.83	2.68244
24.84	2.72158
24.85	2.7502
24.86	2.72487
24.87	2.70185
24.88	2.69757
24.89	2.70283
24.9	2.67158
24.91	2.67487
24.92	2.68145
24.93	2.665
24.94	2.72487
24.95	2.68375
24.96	2.71632
24.97	2.7377
24.98	2.6979
24.99	2.72454
25	2.67685
25.01	2.70119
25.02	2.70415
25.03	2.69823
25.04	2.70448
25.05	2.73803
25.06	2.73639
25.07	2.72619
25.08	2.71303
25.09	2.71665
25.1	2.72553
25.11	2.72783
25.12	2.67717
25.13	2.70974
25.14	2.67027
25.15	2.71139
25.16	2.72389
25.17	2.73014
25.18	2.69724
25.19	2.71336
25.2	2.73639
25.21	2.69691
25.22	2.69691
25.23	2.69362
25.24	2.69625
25.25	2.7331
25.26	2.74494
25.27	2.72882
25.28	2.73145
25.29	2.73178
25.3	2.71402
25.31	2.6956
25.32	2.73474
25.33	2.74264
25.34	2.71139
25.35	2.70086
25.36	2.73178
25.37	2.69066
25.38	2.70119
25.39	2.72125
25.4	2.7081
25.41	2.70875
25.42	2.72816
25.43	2.73836
25.44	2.71928
25.45	2.7025
25.46	2.69527
25.47	2.73672
25.48	2.7127
25.49	2.71764
25.5	2.68836
25.51	2.71073
25.52	2.68967
25.53	2.71961
25.54	2.72191
25.55	2.72224
25.56	2.71468
25.57	2.75185
25.58	2.73968
25.59	2.73803
25.6	2.69592
25.61	2.74626
25.62	2.72487
25.63	2.69264
25.64	2.73145
25.65	2.70711
25.66	2.72027
25.67	2.70579
25.68	2.7104
25.69	2.73836
25.7	2.71829
25.71	2.70974
25.72	2.71533
25.73	2.73178
25.74	2.7229
25.75	2.70908
25.76	2.72718
25.77	2.72882
25.78	2.71797
25.79	2.71435
25.8	2.72093
25.81	2.69724
25.82	2.71237
25.83	2.73211
25.84	2.72422
25.85	2.71007
25.86	2.7104
25.87	2.71895
25.88	2.71961
25.89	2.73047
25.9	2.74264
25.91	2.71303
25.92	2.68803
25.93	2.67717
25.94	2.73869
25.95	2.74691
25.96	2.72093
25.97	2.73836
25.98	2.74001
25.99	2.73902
26	2.73079
26.01	2.71468
26.02	2.71435
26.03	2.69625
26.04	2.69658
26.05	2.73047
26.06	2.76139
26.07	2.73047
26.08	2.71435
26.09	2.68836
26.1	2.71533
26.11	2.71106
26.12	2.72816
26.13	2.71106
26.14	2.67487
26.15	2.69592
26.16	2.69757
26.17	2.72685
26.18	2.72158
26.19	2.74198
26.2	2.73047
26.21	2.72158
26.22	2.69724
26.23	2.70908
26.24	2.73869
26.25	2.71665
26.26	2.68178
26.27	2.70645
26.28	2.71204
26.29	2.70612
26.3	2.70382
26.31	2.73672
26.32	2.72356
26.33	2.70875
26.34	2.72093
26.35	2.68639
26.36	2.68507
26.37	2.70974
26.38	2.69724
26.39	2.69329
26.4	2.7025
26.41	2.71895
26.42	2.74395
26.43	2.72783
26.44	2.72125
26.45	2.71369
26.46	2.71073
26.47	2.6854
26.48	2.70514
26.49	2.71073
26.5	2.69395
26.51	2.6831
26.52	2.70349
26.53	2.71303
26.54	2.69494
26.55	2.69625
26.56	2.69264
26.57	2.68211
26.58	2.72389
26.59	2.71829
26.6	2.72783
26.61	2.70843
26.62	2.68112
26.63	2.69198
26.64	2.7002
26.65	2.68967
26.66	2.70415
26.67	2.72389
26.68	2.72948
26.69	2.71139
26.7	2.7604
26.71	2.69592
26.72	2.73441
26.73	2.71566
26.74	2.72553
26.75	2.71599
26.76	2.71862
26.77	2.73408
26.78	2.72454
26.79	2.72191
26.8	2.715
26.81	2.69691
26.82	2.70777
26.83	2.66796
26.84	2.71895
26.85	2.72422
26.86	2.69987
26.87	2.71599
26.88	2.67586
26.89	2.70645
26.9	2.70744
26.91	2.71073
26.92	2.71073
26.93	2.69099
26.94	2.7025
26.95	2.70382
26.96	2.6979
26.97	2.71106
26.98	2.72257
26.99	2.68639
27	2.69362
27.01	2.73244
27.02	2.72816
27.03	2.70481
27.04	2.7081
27.05	2.69658
27.06	2.69264
27.07	2.69132
27.08	2.68803
27.09	2.71468
27.1	2.69921
27.11	2.70152
27.12	2.69889
27.13	2.7275
27.14	2.74066
27.15	2.76139
27.16	2.72718
27.17	2.70678
27.18	2.70152
27.19	2.69132
27.2	2.7275
27.21	2.74297
27.22	2.72422
27.23	2.72619
27.24	2.72816
27.25	2.73606
27.26	2.70678
27.27	2.72619
27.28	2.71829
27.29	2.7127
27.3	2.71797
27.31	2.7331
27.32	2.71204
27.33	2.6956
27.34	2.70218
27.35	2.71764
27.36	2.71402
27.37	2.69856
27.38	2.68441
27.39	2.6956
27.4	2.73376
27.41	2.72948
27.42	2.70448
27.43	2.73869
27.44	2.73145
27.45	2.69231
27.46	2.68046
27.47	2.69691
27.48	2.72224
27.49	2.71764
27.5	2.71698
27.51	2.73343
27.52	2.73606
27.53	2.71139
27.54	2.72422
27.55	2.71237
27.56	2.73507
27.57	2.73408
27.58	2.68967
27.59	2.70777
27.6	2.69329
27.61	2.68639
27.62	2.70448
27.63	2.7206
27.64	2.70546
27.65	2.7127
27.66	2.7377
27.67	2.71007
27.68	2.71961
27.69	2.71237
27.7	2.71566
27.71	2.70843
27.72	2.70119
27.73	2.69954
27.74	2.68704
27.75	2.69362
27.76	2.66829
27.77	2.71171
27.78	2.71402
27.79	2.71862
27.8	2.71533
27.81	2.70283
27.82	2.71303
27.83	2.73902
27.84	2.72981
27.85	2.7252
27.86	2.71665
27.87	2.75251
27.88	2.75481
27.89	2.7025
27.9	2.70645
27.91	2.73672
27.92	2.71073
27.93	2.68375
27.94	2.71829
27.95	2.72718
27.96	2.70612
27.97	2.70283
27.98	2.71336
27.99	2.74889
28	2.72158
28.01	2.69889
28.02	2.71204
28.03	2.74231
28.04	2.71698
28.05	2.71073
28.06	2.72882
28.07	2.72652
28.08	2.7354
28.09	2.73047
28.1	2.69231
28.11	2.70645
28.12	2.71665
28.13	2.70382
28.14	2.69724
28.15	2.715
28.16	2.70448
28.17	2.72257
28.18	2.71303
28.19	2.71698
28.2	2.71303
28.21	2.71468
28.22	2.73047
28.23	2.69625
28.24	2.71171
28.25	2.66434
28.26	2.72915
28.27	2.70612
28.28	2.73112
28.29	2.73441
28.3	2.72356
28.31	2.73902
28.32	2.72915
28.33	2.71895
28.34	2.69264
28.35	2.71895
28.36	2.7229
28.37	2.70711
28.38	2.69198
28.39	2.72783
28.4	2.73869
28.41	2.74329
28.42	2.69461
28.43	2.69033
28.44	2.71139
28.45	2.71994
28.46	2.71632
28.47	2.70941
28.48	2.71895
28.49	2.6775
28.5	2.68441
28.51	2.68902
28.52	2.71698
28.53	2.69099
28.54	2.71698
28.55	2.71797
28.56	2.71106
28.57	2.7127
28.58	2.72257
28.59	2.73343
28.6	2.74001
28.61	2.73507
28.62	2.7377
28.63	2.72027
28.64	2.70283
28.65	2.72158
28.66	2.74066
28.67	2.71468
28.68	2.70579
28.69	2.6956
28.7	2.69461
28.71	2.68967
28.72	2.70612
28.73	2.6854
28.74	2.70119
28.75	2.71171
28.76	2.71468
28.77	2.6854
28.78	2.71139
28.79	2.68836
28.8	2.70941
28.81	2.70612
28.82	2.73507
28.83	2.71797
28.84	2.73211
28.85	2.77093
28.86	2.73606
28.87	2.73869
28.88	2.73047
28.89	2.72652
28.9	2.68342
28.91	2.69987
28.92	2.73178
28.93	2.71862
28.94	2.72586
28.95	2.70875
28.96	2.6979
28.97	2.68441
28.98	2.72158
28.99	2.70218
29	2.74033
29.01	2.70579
29.02	2.7025
29.03	2.73079
29.04	2.72422
29.05	2.69625
29.06	2.72816
29.07	2.71402
29.08	2.70514
29.09	2.72356
29.1	2.7479
29.11	2.75349
29.12	2.74231
29.13	2.69823
29.14	2.69889
29.15	2.68474
29.16	2.69198
29.17	2.70415
29.18	2.71303
29.19	2.68342
29.2	2.70645
29.21	2.72356
29.22	2.69592
29.23	2.7479
29.24	2.7479
29.25	2.72718
29.26	2.73376
29.27	2.74198
29.28	2.73507
29.29	2.72553
29.3	2.72487
29.31	2.71764
29.32	2.70514
29.33	2.69954
29.34	2.68803
29.35	2.70086
29.36	2.71961
29.37	2.69757
29.38	2.70053
29.39	2.7252
29.4	2.71435
29.41	2.72027
29.42	2.71402
29.43	2.69264
29.44	2.7081
29.45	2.72816
29.46	2.69987
29.47	2.71566
29.48	2.70448
29.49	2.70349
29.5	2.70908
29.51	2.72981
29.52	2.73376
29.53	2.73376
29.54	2.71961
29.55	2.73014
29.56	2.7206
29.57	2.71106
29.58	2.71961
29.59	2.7081
29.6	2.74099
29.61	2.71073
29.62	2.73343
29.63	2.70053
29.64	2.7275
29.65	2.73408
29.66	2.69724
29.67	2.71994
29.68	2.73672
29.69	2.71829
29.7	2.67948
29.71	2.72454
29.72	2.74823
29.73	2.73343
29.74	2.71204
29.75	2.74626
29.76	2.70777
29.77	2.70152
29.78	2.71797
29.79	2.71994
29.8	2.71961
29.81	2.72422
29.82	2.70941
29.83	2.69691
29.84	2.69592
29.85	2.71106
29.86	2.67849
29.87	2.69428
29.88	2.72783
29.89	2.72783
29.9	2.72586
29.91	2.71237
29.92	2.715
29.93	2.71073
29.94	2.71106
29.95	2.70514
29.96	2.73178
29.97	2.70086
29.98	2.69889
29.99	2.68474
30	2.70316
30.01	2.69296
30.02	2.69921
30.03	2.68441
30.04	2.69856
30.05	2.68836
30.06	2.7081
30.07	2.6956
30.08	2.71764
30.09	2.72422
30.1	2.71862
30.11	2.69889
30.12	2.70316
30.13	2.69099
30.14	2.72158
30.15	2.71073
30.16	2.71073
30.17	2.72685
30.18	2.73079
30.19	2.7002
30.2	2.72948
30.21	2.72981
30.22	2.70711
30.23	2.71435
30.24	2.72718
30.25	2.71928
30.26	2.72158
30.27	2.70974
30.28	2.71895
30.29	2.72389
30.3	2.72685
30.31	2.69625
30.32	2.70612
30.33	2.72718
30.34	2.71731
30.35	2.73211
30.36	2.72849
30.37	2.69296
30.38	2.72685
30.39	2.71829
30.4	2.71106
30.41	2.73935
30.42	2.71599
30.43	2.68869
30.44	2.70908
30.45	2.72948
30.46	2.70481
30.47	2.71928
30.48	2.71171
30.49	2.70152
30.5	2.70053
30.51	2.71171
30.52	2.72685
30.53	2.72125
30.54	2.67849
30.55	2.71468
30.56	2.69592
30.57	2.70711
30.58	2.67882
30.59	2.69889
30.6	2.68145
30.61	2.69494
30.62	2.70579
30.63	2.74955
30.64	2.71468
30.65	2.71073
30.66	2.70974
30.67	2.72257
30.68	2.72191
30.69	2.72783
30.7	2.74165
30.71	2.70941
30.72	2.70744
30.73	2.73968
30.74	2.69132
30.75	2.70908
30.76	2.70316
30.77	2.68869
30.78	2.69724
30.79	2.70941
30.8	2.70086
30.81	2.68639
30.82	2.7127
30.83	2.72882
30.84	2.69099
30.85	2.68869
30.86	2.67717
30.87	2.71599
30.88	2.72027
30.89	2.71106
30.9	2.69231
30.91	2.69428
30.92	2.71632
30.93	2.71402
30.94	2.69099
30.95	2.72685
30.96	2.71139
30.97	2.71237
30.98	2.72619
30.99	2.70678
31	2.71928
31.01	2.69592
31.02	2.70086
31.03	2.72389
31.04	2.71895
31.05	2.71599
31.06	2.71632
31.07	2.70415
31.08	2.69264
31.09	2.6706
31.1	2.68046
31.11	2.69198
31.12	2.7025
31.13	2.72948
31.14	2.74198
31.15	2.6877
31.16	2.71204
31.17	2.72454
31.18	2.72356
31.19	2.70678
31.2	2.70152
31.21	2.69231
31.22	2.68046
31.23	2.71764
31.24	2.69231
31.25	2.71632
31.26	2.69527
31.27	2.75547
31.28	2.73968
31.29	2.70941
31.3	2.71139
31.31	2.72125
31.32	2.69395
31.33	2.66895
31.34	2.71402
31.35	2.72816
31.36	2.74297
31.37	2.71468
31.38	2.72356
31.39	2.72257
31.4	2.70908
31.41	2.72718
31.42	2.73935
31.43	2.68935
31.44	2.67882
31.45	2.74987
31.46	2.74922
31.47	2.73737
31.48	2.72487
31.49	2.71435
31.5	2.69625
31.51	2.70283
31.52	2.69856
31.53	2.71961
31.54	2.67586
31.55	2.69132
31.56	2.70382
31.57	2.69461
31.58	2.68046
31.59	2.73803
31.6	2.72356
31.61	2.70843
31.62	2.70283
31.63	2.68869
31.64	2.71994
31.65	2.73507
31.66	2.71303
31.67	2.66599
31.68	2.69494
31.69	2.70744
31.7	2.7127
31.71	2.74395
31.72	2.715
31.73	2.7104
31.74	2.71106
31.75	2.70481
31.76	2.71731
31.77	2.74593
31.78	2.72323
31.79	2.71303
31.8	2.70777
31.81	2.70546
31.82	2.71599
31.83	2.70382
31.84	2.71402
31.85	2.68178
31.86	2.72981
31.87	2.69329
31.88	2.68967
31.89	2.71994
31.9	2.72422
31.91	2.72652
31.92	2.71533
31.93	2.71862
31.94	2.7025
31.95	2.68803
31.96	2.70185
31.97	2.72718
31.98	2.7275
31.99	2.72553
32	2.70744
32.01	2.73211
32.02	2.70612
32.03	2.6956
32.04	2.72356
32.05	2.74955
32.06	2.72191
32.07	2.73178
32.08	2.7502
32.09	2.70744
32.1	2.70415
32.11	2.71665
32.12	2.72849
32.13	2.67882
32.14	2.69494
32.15	2.74724
32.16	2.74231
32.17	2.70843
32.18	2.71632
32.19	2.69231
32.2	2.69658
32.21	2.71468
32.22	2.70908
32.23	2.69954
32.24	2.71237
32.25	2.72356
32.26	2.73376
32.27	2.68573
32.28	2.69066
32.29	2.69658
32.3	2.68342
32.31	2.70382
32.32	2.72191
32.33	2.68935
32.34	2.71665
32.35	2.70119
32.36	2.7229
32.37	2.68375
32.38	2.70777
32.39	2.74099
32.4	2.69132
32.41	2.69856
32.42	2.72553
32.43	2.7377
32.44	2.71073
32.45	2.70875
32.46	2.74889
32.47	2.73376
32.48	2.71566
32.49	2.71303
32.5	2.7229
32.51	2.73244
32.52	2.72389
32.53	2.70843
32.54	2.72191
32.55	2.70974
32.56	2.7229
32.57	2.72652
32.58	2.71961
32.59	2.72191
32.6	2.70974
32.61	2.71764
32.62	2.72981
32.63	2.70185
32.64	2.72027
32.65	2.69527
32.66	2.71665
32.67	2.69889
32.68	2.68935
32.69	2.71566
32.7	2.72981
32.71	2.72224
32.72	2.74264
32.73	2.72783
32.74	2.70448
32.75	2.72422
32.76	2.69296
32.77	2.65579
32.78	2.71237
32.79	2.71961
32.8	2.71435
32.81	2.67849
32.82	2.68737
32.83	2.70119
32.84	2.70152
32.85	2.72027
32.86	2.70645
32.87	2.7104
32.88	2.72158
32.89	2.71336
32.9	2.69954
32.91	2.68441
32.92	2.72685
32.93	2.69494
32.94	2.68507
32.95	2.69658
32.96	2.69954
32.97	2.70711
32.98	2.69856
32.99	2.71599
33	2.72685
33.01	2.72454
33.02	2.71829
33.03	2.69691
33.04	2.70316
33.05	2.71533
33.06	2.71237
33.07	2.70514
33.08	2.65546
33.09	2.69395
33.1	2.69823
33.11	2.69921
33.12	2.69658
33.13	2.70941
33.14	2.69395
33.15	2.69231
33.16	2.71632
33.17	2.75218
33.18	2.72948
33.19	2.70481
33.2	2.68639
33.21	2.69757
33.22	2.69592
33.23	2.68704
33.24	2.68013
33.25	2.7275
33.26	2.71468
33.27	2.71073
33.28	2.72027
33.29	2.72915
33.3	2.69691
33.31	2.67948
33.32	2.69296
33.33	2.70645
33.34	2.71237
33.35	2.71862
33.36	2.69658
33.37	2.71632
33.38	2.70053
33.39	2.68013
33.4	2.70546
33.41	2.71237
33.42	2.75283
33.43	2.73968
33.44	2.73803
33.45	2.72849
33.46	2.73902
33.47	2.68902
33.48	2.68737
33.49	2.7002
33.5	2.70678
33.51	2.67454
33.52	2.72553
33.53	2.69757
33.54	2.7331
33.55	2.72191
33.56	2.71204
33.57	2.72422
33.58	2.70579
33.59	2.70711
33.6	2.70645
33.61	2.72356
33.62	2.71829
33.63	2.71369
33.64	2.72586
33.65	2.69066
33.66	2.69066
33.67	2.68803
33.68	2.6877
33.69	2.69987
33.7	2.71764
33.71	2.71171
33.72	2.71731
33.73	2.70579
33.74	2.68573
33.75	2.7229
33.76	2.73145
33.77	2.7104
33.78	2.72454
33.79	2.72586
33.8	2.72882
33.81	2.74757
33.82	2.72389
33.83	2.67487
33.84	2.71106
33.85	2.69494
33.86	2.71994
33.87	2.7127
33.88	2.70711
33.89	2.72158
33.9	2.71928
33.91	2.71928
33.92	2.70974
33.93	2.73737
33.94	2.72619
33.95	2.71468
33.96	2.68639
33.97	2.6877
33.98	2.70514
33.99	2.7206
34	2.72718
34.01	2.71139
34.02	2.69494
34.03	2.68145
34.04	2.67388
34.05	2.68342
34.06	2.69757
34.07	2.71369
34.08	2.71336
34.09	2.73507
34.1	2.70579
34.11	2.71073
34.12	2.70185
34.13	2.7229
34.14	2.72389
34.15	2.7104
34.16	2.69362
34.17	2.7104
34.18	2.71928
34.19	2.69
34.2	2.73408
34.21	2.67915
34.22	2.72619
34.23	2.70448
34.24	2.71139
34.25	2.68244
34.26	2.70415
34.27	2.71402
34.28	2.72553
34.29	2.72027
34.3	2.71994
34.31	2.71468
34.32	2.70185
34.33	2.70777
34.34	2.69428
34.35	2.67323
34.36	2.69264
34.37	2.69856
34.38	2.71468
34.39	2.72257
34.4	2.69658
34.41	2.70185
34.42	2.72356
34.43	2.73145
34.44	2.72125
34.45	2.72027
34.46	2.74264
34.47	2.7025
34.48	2.70283
34.49	2.72093
34.5	2.68836
34.51	2.71369
34.52	2.70086
34.53	2.72882
34.54	2.70744
34.55	2.7081
34.56	2.72586
34.57	2.72948
34.58	2.73376
34.59	2.71961
34.6	2.72685
34.61	2.70678
34.62	2.71994
34.63	2.71171
34.64	2.71073
34.65	2.72191
34.66	2.71106
34.67	2.67257
34.68	2.69461
34.69	2.74724
34.7	2.73408
34.71	2.72027
34.72	2.70053
34.73	2.68112
34.74	2.70514
34.75	2.67849
34.76	2.71106
34.77	2.70974
34.78	2.71468
34.79	2.67717
34.8	2.70119
34.81	2.7331
34.82	2.73803
34.83	2.69724
34.84	2.68145
34.85	2.67158
34.86	2.6729
34.87	2.69658
34.88	2.69494
34.89	2.67158
34.9	2.68507
34.91	2.6979
34.92	2.70514
34.93	2.68967
34.94	2.69395
34.95	2.72783
34.96	2.73014
34.97	2.69921
34.98	2.71204
34.99	2.71336
35	2.67388
35.01	2.67652
35.02	2.70711
35.03	2.6979
35.04	2.7127
35.05	2.70875
35.06	2.70777
35.07	2.74626
35.08	2.71336
35.09	2.73474
35.1	2.69889
35.11	2.69757
35.12	2.72586
35.13	2.73211
35.14	2.70152
35.15	2.73211
35.16	2.72553
35.17	2.71468
35.18	2.68375
35.19	2.7002
35.2	2.71336
35.21	2.71468
35.22	2.72783
35.23	2.70711
35.24	2.68671
35.25	2.72257
35.26	2.71468
35.27	2.68967
35.28	2.70941
35.29	2.7081
35.3	2.71895
35.31	2.70546
35.32	2.69329
35.33	2.70382
35.34	2.715
35.35	2.69658
35.36	2.71961
35.37	2.72685
35.38	2.70415
35.39	2.71237
35.4	2.71862
35.41	2.7275
35.42	2.70941
35.43	2.71731
35.44	2.72685
35.45	2.73376
35.46	2.72191
35.47	2.67619
35.48	2.70481
35.49	2.71007
35.5	2.69395
35.51	2.69066
35.52	2.68803
35.53	2.69987
35.54	2.69987
35.55	2.69231
35.56	2.69658
35.57	2.67553
35.58	2.69
35.59	2.68869
35.6	2.69461
35.61	2.73704
35.62	2.71139
35.63	2.72125
35.64	2.71731
35.65	2.7025
35.66	2.70941
35.67	2.69757
35.68	2.70744
35.69	2.73014
35.7	2.71369
35.71	2.70941
35.72	2.69527
35.73	2.71073
35.74	2.69823
35.75	2.71961
35.76	2.71237
35.77	2.70941
35.78	2.69987
35.79	2.69296
35.8	2.6956
35.81	2.71533
35.82	2.72158
35.83	2.72158
35.84	2.70974
35.85	2.71106
35.86	2.74099
35.87	2.72093
35.88	2.69066
35.89	2.70053
35.9	2.68408
35.91	2.69592
35.92	2.69921
35.93	2.69592
35.94	2.73112
35.95	2.73672
35.96	2.70875
35.97	2.69592
35.98	2.70283
35.99	2.69724
36	2.68441
36.01	2.67816
36.02	2.69198
36.03	2.68606
36.04	2.72356
36.05	2.69625
36.06	2.67191
36.07	2.6979
36.08	2.7479
36.09	2.70974
36.1	2.715
36.11	2.71402
36.12	2.69264
36.13	2.68737
36.14	2.69428
36.15	2.71895
36.16	2.69987
36.17	2.68935
36.18	2.70053
36.19	2.71402
36.2	2.69856
36.21	2.70941
36.22	2.69658
36.23	2.70744
36.24	2.70941
36.25	2.69658
36.26	2.69066
36.27	2.70316
36.28	2.71961
36.29	2.68869
36.3	2.65875
36.31	2.70843
36.32	2.69395
36.33	2.68902
36.34	2.70481
36.35	2.69198
36.36	2.71369
36.37	2.68704
36.38	2.72553
36.39	2.68869
36.4	2.71369
36.41	2.70185
36.42	2.7127
36.43	2.73704
36.44	2.70711
36.45	2.72389
36.46	2.6854
36.47	2.7025
36.48	2.66533
36.49	2.68342
36.5	2.74231
36.51	2.72323
36.52	2.7127
36.53	2.73639
36.54	2.7081
36.55	2.74066
36.56	2.74856
36.57	2.71764
36.58	2.68606
36.59	2.67981
36.6	2.70843
36.61	2.69987
36.62	2.70678
36.63	2.73145
36.64	2.72093
36.65	2.67356
36.66	2.69165
36.67	2.70546
36.68	2.70843
36.69	2.65875
36.7	2.6979
36.71	2.72389
36.72	2.70777
36.73	2.70941
36.74	2.70152
36.75	2.70382
36.76	2.71599
36.77	2.72882
36.78	2.7229
36.79	2.73408
36.8	2.71797
36.81	2.70514
36.82	2.69921
36.83	2.68836
36.84	2.7206
36.85	2.71435
36.86	2.6956
36.87	2.70612
36.88	2.69856
36.89	2.71895
36.9	2.69987
36.91	2.72125
36.92	2.71665
36.93	2.70974
36.94	2.71566
36.95	2.7002
36.96	2.6877
36.97	2.68803
36.98	2.69461
36.99	2.66763
37	2.70152
37.01	2.67783
37.02	2.70415
37.03	2.70152
37.04	2.69527
37.05	2.70316
37.06	2.69592
37.07	2.71402
37.08	2.71599
37.09	2.7025
37.1	2.70086
37.11	2.72652
37.12	2.7229
37.13	2.72619
37.14	2.70546
37.15	2.69921
37.16	2.69066
37.17	2.70612
37.18	2.74395
37.19	2.74099
37.2	2.71073
37.21	2.65974
37.22	2.68375
37.23	2.72257
37.24	2.7081
37.25	2.68967
37.26	2.71665
37.27	2.69954
37.28	2.7104
37.29	2.71468
37.3	2.72619
37.31	2.72652
37.32	2.67027
37.33	2.69954
37.34	2.70481
37.35	2.71961
37.36	2.73376
37.37	2.69494
37.38	2.72948
37.39	2.70908
37.4	2.71895
37.41	2.73244
37.42	2.69099
37.43	2.6775
37.44	2.70744
37.45	2.71139
37.46	2.73968
37.47	2.6831
37.48	2.73112
37.49	2.69658
37.5	2.69625
37.51	2.7104
37.52	2.715
37.53	2.73079
37.54	2.70316
37.55	2.71435
37.56	2.73507
37.57	2.72915
37.58	2.73244
37.59	2.71533
37.6	2.7206
37.61	2.70941
37.62	2.71764
37.63	2.71533
37.64	2.69198
37.65	2.68935
37.66	2.70382
37.67	2.69362
37.68	2.70053
37.69	2.68737
37.7	2.72619
37.71	2.71731
37.72	2.72915
37.73	2.73704
37.74	2.69625
37.75	2.69757
37.76	2.69231
37.77	2.70152
37.78	2.71204
37.79	2.71895
37.8	2.69987
37.81	2.72158
37.82	2.70382
37.83	2.70152
37.84	2.70974
37.85	2.7331
37.86	2.72882
37.87	2.71829
37.88	2.70086
37.89	2.68178
37.9	2.68145
37.91	2.7127
37.92	2.70119
37.93	2.71533
37.94	2.70678
37.95	2.69592
37.96	2.71171
37.97	2.69592
37.98	2.71764
37.99	2.71632
38	2.69033
38.01	2.71698
38.02	2.70283
38.03	2.67816
38.04	2.69428
38.05	2.70448
38.06	2.74132
38.07	2.72685
38.08	2.73902
38.09	2.7081
38.1	2.6877
38.11	2.69231
38.12	2.70448
38.13	2.70546
38.14	2.73343
38.15	2.72619
38.16	2.71599
38.17	2.7479
38.18	2.7002
38.19	2.70514
38.2	2.72125
38.21	2.7479
38.22	2.71139
38.23	2.6775
38.24	2.69066
38.25	2.74198
38.26	2.72224
38.27	2.71829
38.28	2.69395
38.29	2.71566
38.3	2.70875
38.31	2.67553
38.32	2.69527
38.33	2.67224
38.34	2.68507
38.35	2.71139
38.36	2.71566
38.37	2.72652
38.38	2.72685
38.39	2.72158
38.4	2.72191
38.41	2.70316
38.42	2.71237
38.43	2.72125
38.44	2.7354
38.45	2.70481
38.46	2.7081
38.47	2.71632
38.48	2.69823
38.49	2.70152
38.5	2.69329
38.51	2.70875
38.52	2.70349
38.53	2.71632
38.54	2.73408
38.55	2.71829
38.56	2.68375
38.57	2.69132
38.58	2.70316
38.59	2.74132
38.6	2.72454
38.61	2.74329
38.62	2.73474
38.63	2.67224
38.64	2.71468
38.65	2.72125
38.66	2.6877
38.67	2.71632
38.68	2.69428
38.69	2.68145
38.7	2.69691
38.71	2.69987
38.72	2.69066
38.73	2.74494
38.74	2.70546
38.75	2.69033
38.76	2.69987
38.77	2.7081
38.78	2.72915
38.79	2.73376
38.8	2.71204
38.81	2.74593
38.82	2.7275
38.83	2.72027
38.84	2.72619
38.85	2.71895
38.86	2.74987
38.87	2.75382
38.88	2.70185
38.89	2.73277
38.9	2.71665
38.91	2.71303
38.92	2.69362
38.93	2.69296
38.94	2.69691
38.95	2.70875
38.96	2.70514
38.97	2.71862
38.98	2.70481
38.99	2.72849
39	2.69362
39.01	2.70415
39.02	2.7206
39.03	2.71533
39.04	2.70185
39.05	2.70283
39.06	2.70546
39.07	2.71468
39.08	2.72323
39.09	2.67915
39.1	2.69428
39.11	2.74264
39.12	2.70382
39.13	2.71895
39.14	2.70744
39.15	2.70086
39.16	2.68836
39.17	2.69527
39.18	2.7275
39.19	2.70843
39.2	2.70349
39.21	2.69198
39.22	2.7206
39.23	2.70448
39.24	2.6979
39.25	2.68342
39.26	2.70053
39.27	2.71468
39.28	2.74494
39.29	2.71237
39.3	2.70678
39.31	2.715
39.32	2.71862
39.33	2.70086
39.34	2.72718
39.35	2.74856
39.36	2.70546
39.37	2.71073
39.38	2.73474
39.39	2.68474
39.4	2.69296
39.41	2.69033
39.42	2.68836
39.43	2.66862
39.44	2.70185
39.45	2.73408
39.46	2.69691
39.47	2.69296
39.48	2.72422
39.49	2.70481
39.5	2.67027
39.51	2.67882
39.52	2.69428
39.53	2.71073
39.54	2.69494
39.55	2.6979
39.56	2.71764
39.57	2.71566
39.58	2.70316
39.59	2.70941
39.6	2.71369
39.61	2.72849
39.62	2.72257
39.63	2.71797
39.64	2.71468
39.65	2.7104
39.66	2.70349
39.67	2.71007
39.68	2.70711
39.69	2.72224
39.7	2.71073
39.71	2.73343
39.72	2.72257
39.73	2.69856
39.74	2.70053
39.75	2.70283
39.76	2.71797
39.77	2.69527
39.78	2.70448
39.79	2.70875
39.8	2.69461
39.81	2.69691
39.82	2.69625
39.83	2.71468
39.84	2.69987
39.85	2.74428
39.86	2.7275
39.87	2.67882
39.88	2.69527
39.89	2.70579
39.9	2.69066
39.91	2.70349
39.92	2.71533
39.93	2.70777
39.94	2.69231
39.95	2.69856
39.96	2.715
39.97	2.69724
39.98	2.70645
39.99	2.72422
40	2.71566
40.01	2.70744
40.02	2.74494
40.03	2.73112
40.04	2.73277
40.05	2.70349
40.06	2.70481
40.07	2.71435
40.08	2.73704
40.09	2.72158
40.1	2.68704
40.11	2.71829
40.12	2.70744
40.13	2.70974
40.14	2.69527
40.15	2.71139
40.16	2.68244
40.17	2.67356
40.18	2.69033
40.19	2.71171
40.2	2.72454
40.21	2.74066
40.22	2.70152
40.23	2.67652
40.24	2.67092
40.25	2.69099
40.26	2.71797
40.27	2.70711
40.28	2.71961
40.29	2.69494
40.3	2.7025
40.31	2.71369
40.32	2.71106
40.33	2.68145
40.34	2.69724
40.35	2.71731
40.36	2.7275
40.37	2.70448
40.38	2.71106
40.39	2.72323
40.4	2.6831
40.41	2.68507
40.42	2.71632
40.43	2.69527
40.44	2.70119
40.45	2.70349
40.46	2.67882
40.47	2.70711
40.48	2.70908
40.49	2.71797
40.5	2.7025
40.51	2.72454
40.52	2.72125
40.53	2.69231
40.54	2.72619
40.55	2.67717
40.56	2.70086
40.57	2.70481
40.58	2.68375
40.59	2.68013
40.6	2.70053
40.61	2.69132
40.62	2.70514
40.63	2.70481
40.64	2.69362
40.65	2.67783
40.66	2.68902
40.67	2.71797
40.68	2.69461
40.69	2.68902
40.7	2.73606
40.71	2.71106
40.72	2.70514
40.73	2.7331
40.74	2.68671
40.75	2.69231
40.76	2.7229
40.77	2.70152
40.78	2.7354
40.79	2.71369
40.8	2.68573
40.81	2.68737
40.82	2.68244
40.83	2.69954
40.84	2.73672
40.85	2.70645
40.86	2.70349
40.87	2.71632
40.88	2.73704
40.89	2.74264
40.9	2.72619
40.91	2.73178
40.92	2.71829
40.93	2.72487
40.94	2.71632
40.95	2.68244
40.96	2.73343
40.97	2.69132
40.98	2.70546
40.99	2.72553
41	2.71566
41.01	2.72783
41.02	2.73112
41.03	2.68967
41.04	2.71007
41.05	2.71895
41.06	2.72816
41.07	2.73277
41.08	2.67783
41.09	2.70645
41.1	2.69329
41.11	2.71533
41.12	2.70546
41.13	2.7025
41.14	2.72257
41.15	2.70612
41.16	2.70744
41.17	2.6956
41.18	2.70546
41.19	2.70843
41.2	2.69724
41.21	2.68671
41.22	2.70382
41.23	2.7104
41.24	2.69066
41.25	2.71928
41.26	2.7206
41.27	2.73935
41.28	2.72257
41.29	2.71237
41.3	2.69362
41.31	2.6956
41.32	2.72422
41.33	2.72191
41.34	2.71698
41.35	2.70152
41.36	2.68639
41.37	2.68474
41.38	2.70612
41.39	2.72422
41.4	2.69461
41.41	2.68507
41.42	2.67553
41.43	2.71435
41.44	2.70086
41.45	2.71369
41.46	2.70349
41.47	2.69428
41.48	2.66796
41.49	2.665
41.5	2.70514
41.51	2.73836
41.52	2.71994
41.53	2.70415
41.54	2.71566
41.55	2.73112
41.56	2.70382
41.57	2.70152
41.58	2.71237
41.59	2.72652
41.6	2.71895
41.61	2.69132
41.62	2.71961
41.63	2.69691
41.64	2.67092
41.65	2.71599
41.66	2.70612
41.67	2.68408
41.68	2.65217
41.69	2.6854
41.7	2.72454
41.71	2.72125
41.72	2.6752
41.73	2.68967
41.74	2.71237
41.75	2.7104
41.76	2.73014
41.77	2.69757
41.78	2.69296
41.79	2.72487
41.8	2.70448
41.81	2.70777
41.82	2.6956
41.83	2.68869
41.84	2.66862
41.85	2.7252
41.86	2.73507
41.87	2.72816
41.88	2.69099
41.89	2.68836
41.9	2.7002
41.91	2.69033
41.92	2.71402
41.93	2.67586
41.94	2.6775
41.95	2.72422
41.96	2.70744
41.97	2.69724
41.98	2.71336
41.99	2.70744
42	2.71336
42.01	2.72191
42.02	2.7354
42.03	2.7002
42.04	2.71073
42.05	2.71928
42.06	2.68342
42.07	2.6854
42.08	2.71204
42.09	2.68342
42.1	2.69395
42.11	2.7104
42.12	2.72191
42.13	2.71665
42.14	2.67487
42.15	2.70415
42.16	2.70645
42.17	2.70481
42.18	2.71665
42.19	2.71435
42.2	2.70152
42.21	2.70579
42.22	2.73343
42.23	2.7377
42.24	2.72718
42.25	2.67915
42.26	2.68869
42.27	2.70711
42.28	2.72619
42.29	2.71961
42.3	2.68342
42.31	2.69921
42.32	2.69757
42.33	2.68244
42.34	2.69889
42.35	2.71698
42.36	2.73047
42.37	2.70448
42.38	2.70711
42.39	2.6831
42.4	2.71961
42.41	2.69099
42.42	2.72323
42.43	2.70185
42.44	2.71402
42.45	2.70612
42.46	2.7127
42.47	2.7025
42.48	2.71895
42.49	2.71632
42.5	2.71862
42.51	2.70579
42.52	2.68737
42.53	2.71336
42.54	2.71369
42.55	2.7104
42.56	2.71468
42.57	2.69823
42.58	2.71632
42.59	2.69362
42.6	2.71237
42.61	2.72356
42.62	2.71303
42.63	2.69889
42.64	2.69987
42.65	2.70349
42.66	2.72849
42.67	2.69099
42.68	2.68441
42.69	2.69625
42.7	2.71336
42.71	2.68342
42.72	2.6831
42.73	2.71171
42.74	2.70612
42.75	2.71435
42.76	2.71435
42.77	2.69132
42.78	2.70382
42.79	2.70415
42.8	2.7025
42.81	2.69724
42.82	2.70448
42.83	2.70481
42.84	2.72882
42.85	2.71073
42.86	2.70119
42.87	2.71764
42.88	2.70908
42.89	2.7104
42.9	2.71007
42.91	2.70612
42.92	2.70579
42.93	2.70415
42.94	2.70546
42.95	2.70711
42.96	2.68178
42.97	2.68079
42.98	2.69362
42.99	2.68902
43	2.71764
43.01	2.73079
43.02	2.75481
43.03	2.71797
43.04	2.68112
43.05	2.70218
43.06	2.71994
43.07	2.69527
43.08	2.71533
43.09	2.72093
43.1	2.70777
43.11	2.71171
43.12	2.70415
43.13	2.69231
43.14	2.70579
43.15	2.69395
43.16	2.73408
43.17	2.71698
43.18	2.72454
43.19	2.72125
43.2	2.68507
43.21	2.68671
43.22	2.71007
43.23	2.69658
43.24	2.70283
43.25	2.715
43.26	2.68507
43.27	2.72125
43.28	2.72849
43.29	2.7275
43.3	2.68342
43.31	2.70974
43.32	2.68573
43.33	2.71007
43.34	2.73079
43.35	2.70514
43.36	2.68704
43.37	2.69296
43.38	2.68375
43.39	2.69954
43.4	2.71665
43.41	2.69494
43.42	2.70119
43.43	2.73145
43.44	2.72389
43.45	2.70349
43.46	2.71237
43.47	2.72125
43.48	2.72224
43.49	2.67257
43.5	2.70119
43.51	2.71731
43.52	2.72685
43.53	2.69461
43.54	2.71336
43.55	2.71073
43.56	2.72586
43.57	2.7229
43.58	2.70546
43.59	2.69395
43.6	2.71237
43.61	2.6877
43.62	2.74033
43.63	2.715
43.64	2.69658
43.65	2.73704
43.66	2.75481
43.67	2.74823
43.68	2.68671
43.69	2.7275
43.7	2.7377
43.71	2.7331
43.72	2.69889
43.73	2.68704
43.74	2.67586
43.75	2.69494
43.76	2.69987
43.77	2.70448
43.78	2.68737
43.79	2.70908
43.8	2.67619
43.81	2.68474
43.82	2.70086
43.83	2.71566
43.84	2.71237
43.85	2.73014
43.86	2.70908
43.87	2.70185
43.88	2.72454
43.89	2.72389
43.9	2.72685
43.91	2.71599
43.92	2.70382
43.93	2.70514
43.94	2.71533
43.95	2.71698
43.96	2.68935
43.97	2.68211
43.98	2.69264
43.99	2.73014
44	2.75218
44.01	2.70053
44.02	2.6979
44.03	2.6979
44.04	2.74494
44.05	2.70119
44.06	2.71566
44.07	2.71566
44.08	2.70514
44.09	2.69329
44.1	2.68408
44.11	2.69954
44.12	2.71895
44.13	2.72882
44.14	2.71731
44.15	2.72356
44.16	2.70152
44.17	2.68606
44.18	2.72389
44.19	2.72487
44.2	2.69132
44.21	2.69
44.22	2.70185
44.23	2.71698
44.24	2.71533
44.25	2.72422
44.26	2.70086
44.27	2.70908
44.28	2.70612
44.29	2.68935
44.3	2.70218
44.31	2.73704
44.32	2.74955
44.33	2.74724
44.34	2.73474
44.35	2.71698
44.36	2.72158
44.37	2.69461
44.38	2.70546
44.39	2.72619
44.4	2.70875
44.41	2.7252
44.42	2.72257
44.43	2.71468
44.44	2.73639
44.45	2.71698
44.46	2.75119
44.47	2.73408
44.48	2.70481
44.49	2.72323
44.5	2.71698
44.51	2.75152
44.52	2.74264
44.53	2.71073
44.54	2.66895
44.55	2.70941
44.56	2.70086
44.57	2.72356
44.58	2.73014
44.59	2.70349
44.6	2.68737
44.61	2.68013
44.62	2.70283
44.63	2.71369
44.64	2.69823
44.65	2.69921
44.66	2.70974
44.67	2.71566
44.68	2.70514
44.69	2.69132
44.7	2.68244
44.71	2.70744
44.72	2.72389
44.73	2.72619
44.74	2.71171
44.75	2.72093
44.76	2.69856
44.77	2.69954
44.78	2.70875
44.79	2.72454
44.8	2.69329
44.81	2.70382
44.82	2.68902
44.83	2.72323
44.84	2.72356
44.85	2.71994
44.86	2.73441
44.87	2.71994
44.88	2.71797
44.89	2.69987
44.9	2.70645
44.91	2.715
44.92	2.68737
44.93	2.72224
44.94	2.70974
44.95	2.73145
44.96	2.70579
44.97	2.7206
44.98	2.69099
44.99	2.71237
45	2.71139
45.01	2.72093
45.02	2.74823
45.03	2.69889
45.04	2.68836
45.05	2.71468
45.06	2.68967
45.07	2.70349
45.08	2.69889
45.09	2.6854
45.1	2.68967
45.11	2.73474
45.12	2.73968
45.13	2.68145
45.14	2.70316
45.15	2.71468
45.16	2.69099
45.17	2.68869
45.18	2.67948
45.19	2.68967
45.2	2.68639
45.21	2.70875
45.22	2.7104
45.23	2.71204
45.24	2.70481
45.25	2.67586
45.26	2.68178
45.27	2.70185
45.28	2.70481
45.29	2.67454
45.3	2.69231
45.31	2.70382
45.32	2.68375
45.33	2.71731
45.34	2.75283
45.35	2.72158
45.36	2.70086
45.37	2.70546
45.38	2.71468
45.39	2.71171
45.4	2.72224
45.41	2.68474
45.42	2.68671
45.43	2.67619
45.44	2.69494
45.45	2.69
45.46	2.68375
45.47	2.72685
45.48	2.7252
45.49	2.69099
45.5	2.71336
45.51	2.72718
45.52	2.68869
45.53	2.69296
45.54	2.69592
45.55	2.70875
45.56	2.72652
45.57	2.70645
45.58	2.70316
45.59	2.69231
45.6	2.68244
45.61	2.71204
45.62	2.69132
45.63	2.67257
45.64	2.68836
45.65	2.70283
45.66	2.69592
45.67	2.71994
45.68	2.69395
45.69	2.7104
45.7	2.68704
45.71	2.7275
45.72	2.68178
45.73	2.7206
45.74	2.71007
45.75	2.70645
45.76	2.72257
45.77	2.68639
45.78	2.69724
45.79	2.70316
45.8	2.70218
45.81	2.73244
45.82	2.70843
45.83	2.6831
45.84	2.69132
45.85	2.70546
45.86	2.70382
45.87	2.69889
45.88	2.68507
45.89	2.71171
45.9	2.7275
45.91	2.70711
45.92	2.71237
45.93	2.68079
45.94	2.70875
45.95	2.69527
45.96	2.68474
45.97	2.73573
45.98	2.71698
45.99	2.71632
46	2.70941
46.01	2.69066
46.02	2.69329
46.03	2.68342
46.04	2.68441
46.05	2.71237
46.06	2.70316
46.07	2.71106
46.08	2.67125
46.09	2.72454
46.1	2.70612
46.11	2.67356
46.12	2.7127
46.13	2.71369
46.14	2.69954
46.15	2.71139
46.16	2.72619
46.17	2.71961
46.18	2.75481
46.19	2.69856
46.2	2.72093
46.21	2.69921
46.22	2.70875
46.23	2.71237
46.24	2.68474
46.25	2.70514
46.26	2.68573
46.27	2.70448
46.28	2.6831
46.29	2.71829
46.3	2.72718
46.31	2.70777
46.32	2.69362
46.33	2.7456
46.34	2.73244
46.35	2.70086
46.36	2.72191
46.37	2.69592
46.38	2.73079
46.39	2.72257
46.4	2.71468
46.41	2.68375
46.42	2.69296
46.43	2.66566
46.44	2.64954
46.45	2.66862
46.46	2.70152
46.47	2.69625
46.48	2.68474
46.49	2.70481
46.5	2.69757
46.51	2.70546
46.52	2.72652
46.53	2.73178
46.54	2.69033
46.55	2.7252
46.56	2.72685
46.57	2.6604
46.58	2.68902
46.59	2.6956
46.6	2.69165
46.61	2.69527
46.62	2.69691
46.63	2.69264
46.64	2.70744
46.65	2.72652
46.66	2.72652
46.67	2.68639
46.68	2.66073
46.69	2.72191
46.7	2.68244
46.71	2.68145
46.72	2.71599
46.73	2.70349
46.74	2.71599
46.75	2.71303
46.76	2.71369
46.77	2.72158
46.78	2.72783
46.79	2.70218
46.8	2.71171
46.81	2.69461
46.82	2.72027
46.83	2.70053
46.84	2.68935
46.85	2.68408
46.86	2.71171
46.87	2.69592
46.88	2.69954
46.89	2.68836
46.9	2.71139
46.91	2.68408
46.92	2.68507
46.93	2.71566
46.94	2.69658
46.95	2.71698
46.96	2.74198
46.97	2.71797
46.98	2.69724
46.99	2.69757
47	2.69625
47.01	2.73869
47.02	2.69494
47.03	2.71073
47.04	2.71632
47.05	2.65382
47.06	2.68178
47.07	2.7331
47.08	2.69625
47.09	2.67915
47.1	2.68507
47.11	2.69527
47.12	2.72356
47.13	2.67586
47.14	2.69757
47.15	2.73968
47.16	2.7683
47.17	2.69856
47.18	2.69494
47.19	2.66533
47.2	2.71237
47.21	2.68441
47.22	2.69231
47.23	2.69889
47.24	2.70382
47.25	2.69724
47.26	2.72422
47.27	2.7025
47.28	2.6877
47.29	2.72685
47.3	2.72191
47.31	2.68803
47.32	2.71961
47.33	2.68342
47.34	2.68112
47.35	2.68145
47.36	2.70843
47.37	2.69494
47.38	2.7104
47.39	2.69231
47.4	2.69527
47.41	2.71829
47.42	2.68803
47.43	2.70349
47.44	2.68211
47.45	2.71895
47.46	2.69099
47.47	2.71829
47.48	2.71698
47.49	2.73869
47.5	2.71961
47.51	2.72125
47.52	2.74527
47.53	2.70546
47.54	2.72652
47.55	2.70152
47.56	2.7377
47.57	2.72948
47.58	2.71435
47.59	2.70119
47.6	2.68573
47.61	2.71566
47.62	2.71533
47.63	2.69494
47.64	2.70514
47.65	2.70185
47.66	2.69264
47.67	2.69198
47.68	2.6854
47.69	2.7229
47.7	2.72619
47.71	2.71665
47.72	2.7025
47.73	2.70119
47.74	2.66632
47.75	2.69264
47.76	2.69691
47.77	2.70481
47.78	2.72158
47.79	2.71468
47.8	2.7252
47.81	2.6956
47.82	2.68244
47.83	2.71797
47.84	2.70152
47.85	2.69165
47.86	2.71007
47.87	2.68507
47.88	2.70908
47.89	2.715
47.9	2.75612
47.91	2.70382
47.92	2.68704
47.93	2.68935
47.94	2.69527
47.95	2.72553
47.96	2.72125
47.97	2.69329
47.98	2.72816
47.99	2.70875
48	2.69165
48.01	2.67882
48.02	2.68112
48.03	2.72718
48.04	2.74066
48.05	2.74395
48.06	2.70053
48.07	2.71204
48.08	2.69099
48.09	2.71303
48.1	2.71632
48.11	2.73408
48.12	2.69987
48.13	2.70843
48.14	2.71007
48.15	2.70218
48.16	2.70119
48.17	2.70283
48.18	2.70283
48.19	2.71139
48.2	2.68573
48.21	2.7252
48.22	2.71632
48.23	2.6877
48.24	2.66994
48.25	2.67027
48.26	2.69987
48.27	2.69856
48.28	2.71829
48.29	2.69494
48.3	2.7127
48.31	2.72685
48.32	2.70053
48.33	2.72093
48.34	2.71007
48.35	2.70218
48.36	2.69658
48.37	2.7025
48.38	2.68935
48.39	2.71106
48.4	2.72158
48.41	2.7025
48.42	2.70448
48.43	2.71369
48.44	2.7206
48.45	2.7104
48.46	2.75448
48.47	2.67388
48.48	2.71369
48.49	2.71468
48.5	2.71303
48.51	2.7002
48.52	2.70711
48.53	2.67783
48.54	2.70086
48.55	2.69954
48.56	2.70185
48.57	2.71139
48.58	2.7127
48.59	2.69757
48.6	2.68606
48.61	2.70415
48.62	2.68606
48.63	2.71468
48.64	2.71599
48.65	2.68606
48.66	2.6854
48.67	2.69264
48.68	2.71928
48.69	2.69889
48.7	2.72586
48.71	2.69264
48.72	2.68408
48.73	2.70152
48.74	2.69362
48.75	2.68244
48.76	2.68178
48.77	2.6979
48.78	2.68902
48.79	2.69428
48.8	2.70086
48.81	2.70908
48.82	2.70481
48.83	2.70481
48.84	2.70678
48.85	2.70875
48.86	2.71698
48.87	2.71073
48.88	2.71106
48.89	2.71369
48.9	2.69987
48.91	2.72553
48.92	2.71303
48.93	2.70579
48.94	2.68737
48.95	2.68704
48.96	2.69527
48.97	2.73737
48.98	2.71106
48.99	2.70316
49	2.73507
49.01	2.71895
49.02	2.71632
49.03	2.72027
49.04	2.72718
49.05	2.73112
49.06	2.70777
49.07	2.71599
49.08	2.72257
49.09	2.71139
49.1	2.69461
49.11	2.69
49.12	2.71665
49.13	2.68737
49.14	2.72158
49.15	2.69592
49.16	2.70612
49.17	2.70415
49.18	2.69724
49.19	2.72882
49.2	2.73014
49.21	2.69889
49.22	2.70448
49.23	2.69921
49.24	2.70119
49.25	2.70612
49.26	2.72125
49.27	2.74132
49.28	2.7002
49.29	2.70875
49.3	2.71139
49.31	2.70711
49.32	2.72224
49.33	2.69231
49.34	2.71402
49.35	2.71797
49.36	2.70119
49.37	2.71797
49.38	2.69691
49.39	2.69264
49.4	2.72454
49.41	2.7104
49.42	2.67685
49.43	2.68836
49.44	2.70053
49.45	2.72158
49.46	2.72257
49.47	2.69296
49.48	2.6854
49.49	2.69033
49.5	2.715
49.51	2.71204
49.52	2.715
49.53	2.70218
49.54	2.68639
49.55	2.71171
49.56	2.69329
49.57	2.70744
49.58	2.68441
49.59	2.72027
49.6	2.73079
49.61	2.68211
49.62	2.6956
49.63	2.65184
49.64	2.68737
49.65	2.71928
49.66	2.70448
49.67	2.69296
49.68	2.6854
49.69	2.68178
49.7	2.67652
49.71	2.67356
49.72	2.71797
49.73	2.70185
49.74	2.71171
49.75	2.71402
49.76	2.73408
49.77	2.70316
49.78	2.70349
49.79	2.70645
49.8	2.69494
49.81	2.69362
49.82	2.70875
49.83	2.68671
49.84	2.69856
49.85	2.67125
49.86	2.65316
49.87	2.69362
49.88	2.68606
49.89	2.715
49.9	2.70382
49.91	2.69296
49.92	2.74658
49.93	2.72915
49.94	2.72816
49.95	2.74395
49.96	2.74231
49.97	2.69362
49.98	2.70546
49.99	2.7331
50	2.72882
