"BIO-KINE ASCII FILE"
"_COMMENT"	"MOS-500 Spectrometer"
"_COMMENT"	"Kinetics measurement"
"_COMMENT"	"Y Unit : Volt,  X Unit : s"
"_COMMENT"	"Excitation wavelength : 380 nm"
"_COMMENT"	"Fentes bandwidth =  1 nm"
"_COMMENT"	"HV= 1000V"
"_COMMENT"	"Timebase  1 =  .01 s   3001 pts"
"_SFM"	"SFM-400 /S  Advanced mode"
"_SFM"	"Ratio : S1: 2.5, S2: 0, S3: 0, S4: 1"
"_SFM"	"Content : S1: , S2: , S3: , S4:"
"_SFM"	"Concentration : S1: , S2: , S3: , S4:"
"_SFM"	"Total volume : 209 µl  Flow : 3.5 mL/s"
"_SFM"	"Acquisition start :  10 ms before stop"
"_SFM"	"cuve=FC-15, s1=10 ml , s2=10 ml , s3=10 ml , s4=1.9 ml"
"_UNITX"	"s"
"_UNITY"	"Volt"
"_DELTAX"	0
"_DATA"
1e-300	2.63046
0.01	2.61697
0.02	2.60875
0.03	2.6377
0.04	2.68277
0.05	2.72224
0.06	2.70514
0.07	2.7252
0.08	2.73639
0.09	2.75283
0.1	2.76369
0.11	2.77652
0.12	2.77882
0.13	2.79034
0.14	2.80514
0.15	2.8206
0.16	2.82488
0.17	2.80645
0.18	2.78244
0.19	2.80613
0.2	2.76205
0.21	2.78047
0.22	2.77685
0.23	2.79527
0.24	2.82915
0.25	2.79363
0.26	2.78014
0.27	2.78836
0.28	2.82126
0.29	2.80251
0.3	2.80481
0.31	2.82192
0.32	2.85843
0.33	2.84297
0.34	2.7979
0.35	2.79001
0.36	2.81007
0.37	2.80053
0.38	2.80119
0.39	2.81731
0.4	2.82784
0.41	2.82981
0.42	2.79363
0.43	2.81106
0.44	2.81073
0.45	2.8331
0.46	2.82882
0.47	2.80711
0.48	2.81863
0.49	2.8331
0.5	2.8285
0.51	2.8183
0.52	2.85481
0.53	2.8535
0.54	2.82323
0.55	2.84198
0.56	2.8479
0.57	2.81665
0.58	2.82981
0.59	2.80777
0.6	2.85613
0.61	2.84889
0.62	2.83672
0.63	2.83803
0.64	2.82224
0.65	2.82817
0.66	2.82323
0.67	2.8479
0.68	2.83606
0.69	2.80415
0.7	2.83639
0.71	2.83113
0.72	2.83639
0.73	2.81665
0.74	2.83935
0.75	2.83244
0.76	2.83639
0.77	2.79264
0.78	2.81369
0.79	2.85086
0.8	2.82126
0.81	2.80349
0.82	2.83507
0.83	2.81501
0.84	2.79461
0.85	2.81698
0.86	2.81106
0.87	2.81271
0.88	2.82915
0.89	2.80645
0.9	2.81501
0.91	2.82356
0.92	2.7979
0.93	2.78639
0.94	2.82027
0.95	2.81172
0.96	2.81731
0.97	2.84231
0.98	2.84922
0.99	2.8535
1	2.82159
1.01	2.78738
1.02	2.8081
1.03	2.81172
1.04	2.80185
1.05	2.80086
1.06	2.81632
1.07	2.81896
1.08	2.82093
1.09	2.82126
1.1	2.8285
1.11	2.82553
1.12	2.83442
1.13	2.82586
1.14	2.81501
1.15	2.81336
1.16	2.85054
1.17	2.83211
1.18	2.80415
1.19	2.79395
1.2	2.84165
1.21	2.84527
1.22	2.77882
1.23	2.7956
1.24	2.8229
1.25	2.83803
1.26	2.79626
1.27	2.81731
1.28	2.80152
1.29	2.78474
1.3	2.79132
1.31	2.80744
1.32	2.80909
1.33	2.79001
1.34	2.80744
1.35	2.84823
1.36	2.82915
1.37	2.83409
1.38	2.79856
1.39	2.80481
1.4	2.7752
1.41	2.79922
1.42	2.78968
1.43	2.81764
1.44	2.80843
1.45	2.80481
1.46	2.7956
1.47	2.78343
1.48	2.78672
1.49	2.80744
1.5	2.83211
1.51	2.81073
1.52	2.77948
1.53	2.77487
1.54	2.78441
1.55	2.79823
1.56	2.8058
1.57	2.80053
1.58	2.79988
1.59	2.79461
1.6	2.7979
1.61	2.80448
1.62	2.78705
1.63	2.81336
1.64	2.81007
1.65	2.82224
1.66	2.7956
1.67	2.82981
1.68	2.81073
1.69	2.79692
1.7	2.81435
1.71	2.81073
1.72	2.78573
1.73	2.78474
1.74	2.7729
1.75	2.81106
1.76	2.79988
1.77	2.76172
1.78	2.80876
1.79	2.76665
1.8	2.81303
1.81	2.81303
1.82	2.81896
1.83	2.85382
1.84	2.83244
1.85	2.8183
1.86	2.7706
1.87	2.81402
1.88	2.83244
1.89	2.80251
1.9	2.79428
1.91	2.78705
1.92	2.78573
1.93	2.79297
1.94	2.81271
1.95	2.7979
1.96	2.80349
1.97	2.79395
1.98	2.76895
1.99	2.77751
2	2.77652
2.01	2.8104
2.02	2.78573
2.03	2.79231
2.04	2.78869
2.05	2.79198
2.06	2.77718
2.07	2.78244
2.08	2.79034
2.09	2.80514
2.1	2.81731
2.11	2.7808
2.12	2.79363
2.13	2.79659
2.14	2.79724
2.15	2.81205
2.16	2.78705
2.17	2.77882
2.18	2.79856
2.19	2.77652
2.2	2.79955
2.21	2.79724
2.22	2.79461
2.23	2.78606
2.24	2.79231
2.25	2.79001
2.26	2.78869
2.27	2.80613
2.28	2.78738
2.29	2.78606
2.3	2.80481
2.31	2.81698
2.32	2.81139
2.33	2.80317
2.34	2.79659
2.35	2.79988
2.36	2.77356
2.37	2.84297
2.38	2.84988
2.39	2.80909
2.4	2.80942
2.41	2.8229
2.42	2.80382
2.43	2.79001
2.44	2.7808
2.45	2.76435
2.46	2.78705
2.47	2.78441
2.48	2.77948
2.49	2.80711
2.5	2.79001
2.51	2.79198
2.52	2.79922
2.53	2.80053
2.54	2.79231
2.55	2.79297
2.56	2.80613
2.57	2.77389
2.58	2.77455
2.59	2.80448
2.6	2.81336
2.61	2.81139
2.62	2.81139
2.63	2.77027
2.64	2.7831
2.65	2.79297
2.66	2.78606
2.67	2.79297
2.68	2.77882
2.69	2.76172
2.7	2.80481
2.71	2.76994
2.72	2.79297
2.73	2.81139
2.74	2.79461
2.75	2.75251
2.76	2.75843
2.77	2.7979
2.78	2.80711
2.79	2.79527
2.8	2.79724
2.81	2.7808
2.82	2.75547
2.83	2.78606
2.84	2.76764
2.85	2.76566
2.86	2.77619
2.87	2.77586
2.88	2.78705
2.89	2.77882
2.9	2.76862
2.91	2.77816
2.92	2.78935
2.93	2.81073
2.94	2.78474
2.95	2.77948
2.96	2.75448
2.97	2.76534
2.98	2.76468
2.99	2.77652
3	2.8104
3.01	2.78047
3.02	2.78244
3.03	2.78409
3.04	2.77751
3.05	2.77455
3.06	2.73573
3.07	2.76402
3.08	2.76073
3.09	2.80053
3.1	2.77882
3.11	2.7979
3.12	2.76205
3.13	2.7377
3.14	2.76205
3.15	2.78376
3.16	2.79165
3.17	2.78244
3.18	2.75645
3.19	2.77784
3.2	2.76402
3.21	2.77882
3.22	2.77126
3.23	2.79264
3.24	2.8081
3.25	2.79823
3.26	2.78474
3.27	2.76172
3.28	2.73935
3.29	2.77652
3.3	2.79264
3.31	2.79231
3.32	2.7683
3.33	2.76106
3.34	2.76534
3.35	2.72586
3.36	2.76764
3.37	2.77784
3.38	2.77224
3.39	2.77224
3.4	2.77455
3.41	2.75908
3.42	2.76797
3.43	2.78113
3.44	2.77356
3.45	2.77685
3.46	2.77882
3.47	2.76205
3.48	2.77784
3.49	2.75744
3.5	2.75119
3.51	2.7729
3.52	2.78244
3.53	2.79823
3.54	2.77849
3.55	2.7604
3.56	2.7581
3.57	2.76961
3.58	2.76106
3.59	2.75908
3.6	2.76106
3.61	2.75349
3.62	2.76862
3.63	2.76797
3.64	2.78113
3.65	2.78606
3.66	2.77422
3.67	2.78113
3.68	2.78639
3.69	2.77487
3.7	2.76566
3.71	2.75843
3.72	2.76764
3.73	2.77685
3.74	2.78343
3.75	2.76566
3.76	2.76731
3.77	2.72586
3.78	2.78343
3.79	2.80251
3.8	2.78935
3.81	2.77422
3.82	2.76632
3.83	2.78178
3.84	2.7683
3.85	2.79363
3.86	2.76468
3.87	2.7729
3.88	2.78343
3.89	2.79626
3.9	2.80185
3.91	2.77948
3.92	2.75974
3.93	2.7627
3.94	2.75283
3.95	2.74593
3.96	2.74757
3.97	2.73277
3.98	2.74165
3.99	2.75086
4	2.76862
4.01	2.80613
4.02	2.77849
4.03	2.78474
4.04	2.7479
4.05	2.80481
4.06	2.78836
4.07	2.7808
4.08	2.7877
4.09	2.79395
4.1	2.79428
4.11	2.77257
4.12	2.76994
4.13	2.77389
4.14	2.76501
4.15	2.75908
4.16	2.75547
4.17	2.73441
4.18	2.76106
4.19	2.75316
4.2	2.75481
4.21	2.78113
4.22	2.77586
4.23	2.80547
4.24	2.78869
4.25	2.75711
4.26	2.76435
4.27	2.76928
4.28	2.74001
4.29	2.74724
4.3	2.76303
4.31	2.76172
4.32	2.73079
4.33	2.75612
4.34	2.75876
4.35	2.76928
4.36	2.7558
4.37	2.74001
4.38	2.74461
4.39	2.74593
4.4	2.7604
4.41	2.74099
4.42	2.76237
4.43	2.78211
4.44	2.75415
4.45	2.74757
4.46	2.74428
4.47	2.75152
4.48	2.74593
4.49	2.76862
4.5	2.76895
4.51	2.78573
4.52	2.75612
4.53	2.76205
4.54	2.76402
4.55	2.75349
4.56	2.78145
4.57	2.77652
4.58	2.7627
4.59	2.75152
4.6	2.74428
4.61	2.76073
4.62	2.78113
4.63	2.75448
4.64	2.73244
4.65	2.74165
4.66	2.79132
4.67	2.79099
4.68	2.78738
4.69	2.74165
4.7	2.74856
4.71	2.78803
4.72	2.78211
4.73	2.78047
4.74	2.76599
4.75	2.7604
4.76	2.76106
4.77	2.77487
4.78	2.80349
4.79	2.76139
4.8	2.75086
4.81	2.73803
4.82	2.72027
4.83	2.74362
4.84	2.76534
4.85	2.73737
4.86	2.75843
4.87	2.77751
4.88	2.76336
4.89	2.74527
4.9	2.7752
4.91	2.76862
4.92	2.74955
4.93	2.77356
4.94	2.75744
4.95	2.75974
4.96	2.73836
4.97	2.76139
4.98	2.75415
4.99	2.80119
5	2.78606
5.01	2.79461
5.02	2.77619
5.03	2.75876
5.04	2.78178
5.05	2.75251
5.06	2.71829
5.07	2.72915
5.08	2.74658
5.09	2.71632
5.1	2.7456
5.11	2.75349
5.12	2.74297
5.13	2.74362
5.14	2.74987
5.15	2.71961
5.16	2.74033
5.17	2.75612
5.18	2.76435
5.19	2.73047
5.2	2.72553
5.21	2.7604
5.22	2.72257
5.23	2.74461
5.24	2.74527
5.25	2.74691
5.26	2.74593
5.27	2.75876
5.28	2.76303
5.29	2.74099
5.3	2.75514
5.31	2.74066
5.32	2.75974
5.33	2.72454
5.34	2.73902
5.35	2.7604
5.36	2.73672
5.37	2.73343
5.38	2.72981
5.39	2.71204
5.4	2.73672
5.41	2.74099
5.42	2.77553
5.43	2.77718
5.44	2.75612
5.45	2.72718
5.46	2.76336
5.47	2.79757
5.48	2.74165
5.49	2.75843
5.5	2.75711
5.51	2.77389
5.52	2.77356
5.53	2.74001
5.54	2.75086
5.55	2.76468
5.56	2.77126
5.57	2.75283
5.58	2.76139
5.59	2.77849
5.6	2.75908
5.61	2.71994
5.62	2.72487
5.63	2.73474
5.64	2.72158
5.65	2.7581
5.66	2.74231
5.67	2.73343
5.68	2.74527
5.69	2.73441
5.7	2.72619
5.71	2.72093
5.72	2.73803
5.73	2.73178
5.74	2.75349
5.75	2.76073
5.76	2.76369
5.77	2.76205
5.78	2.73244
5.79	2.73704
5.8	2.74593
5.81	2.75777
5.82	2.77751
5.83	2.7456
5.84	2.7502
5.85	2.73079
5.86	2.75514
5.87	2.75218
5.88	2.7502
5.89	2.75908
5.9	2.73507
5.91	2.72619
5.92	2.75119
5.93	2.72257
5.94	2.77093
5.95	2.75645
5.96	2.74724
5.97	2.76468
5.98	2.74461
5.99	2.76599
6	2.77356
6.01	2.75876
6.02	2.73014
6.03	2.73573
6.04	2.74165
6.05	2.75777
6.06	2.74626
6.07	2.76007
6.08	2.73606
6.09	2.74757
6.1	2.73573
6.11	2.74757
6.12	2.73935
6.13	2.76566
6.14	2.74757
6.15	2.75415
6.16	2.77455
6.17	2.75251
6.18	2.76994
6.19	2.77159
6.2	2.73935
6.21	2.73507
6.22	2.715
6.23	2.75119
6.24	2.73376
6.25	2.7354
6.26	2.71764
6.27	2.72849
6.28	2.75382
6.29	2.76961
6.3	2.77323
6.31	2.73507
6.32	2.74132
6.33	2.75843
6.34	2.76534
6.35	2.76007
6.36	2.7377
6.37	2.74593
6.38	2.75119
6.39	2.73343
6.4	2.74428
6.41	2.72323
6.42	2.72323
6.43	2.71895
6.44	2.74461
6.45	2.73902
6.46	2.74165
6.47	2.76895
6.48	2.78474
6.49	2.74922
6.5	2.74922
6.51	2.75678
6.52	2.74132
6.53	2.70678
6.54	2.75876
6.55	2.75415
6.56	2.73968
6.57	2.75053
6.58	2.75744
6.59	2.73376
6.6	2.72685
6.61	2.74757
6.62	2.74001
6.63	2.74001
6.64	2.73145
6.65	2.75514
6.66	2.73737
6.67	2.71928
6.68	2.71402
6.69	2.72652
6.7	2.76501
6.71	2.75448
6.72	2.73639
6.73	2.74329
6.74	2.75185
6.75	2.75481
6.76	2.73606
6.77	2.76007
6.78	2.74494
6.79	2.7456
6.8	2.73474
6.81	2.76402
6.82	2.73935
6.83	2.73672
6.84	2.74955
6.85	2.73441
6.86	2.73047
6.87	2.74066
6.88	2.75152
6.89	2.75514
6.9	2.72224
6.91	2.75382
6.92	2.71764
6.93	2.75678
6.94	2.74856
6.95	2.75152
6.96	2.73672
6.97	2.77487
6.98	2.78573
6.99	2.73803
7	2.74724
7.01	2.77422
7.02	2.72783
7.03	2.74987
7.04	2.76534
7.05	2.75283
7.06	2.75547
7.07	2.7354
7.08	2.73343
7.09	2.75547
7.1	2.76895
7.11	2.75876
7.12	2.75415
7.13	2.73639
7.14	2.71961
7.15	2.75119
7.16	2.74461
7.17	2.71895
7.18	2.74724
7.19	2.74066
7.2	2.75612
7.21	2.7229
7.22	2.72915
7.23	2.74461
7.24	2.73211
7.25	2.74428
7.26	2.77487
7.27	2.75053
7.28	2.73639
7.29	2.73672
7.3	2.74428
7.31	2.74987
7.32	2.75382
7.33	2.75448
7.34	2.7558
7.35	2.73507
7.36	2.73178
7.37	2.73014
7.38	2.71797
7.39	2.7456
7.4	2.7104
7.41	2.71336
7.42	2.72323
7.43	2.69592
7.44	2.70349
7.45	2.69724
7.46	2.73639
7.47	2.75086
7.48	2.73507
7.49	2.74955
7.5	2.73968
7.51	2.7479
7.52	2.73441
7.53	2.75481
7.54	2.71829
7.55	2.73145
7.56	2.73112
7.57	2.73968
7.58	2.74001
7.59	2.72454
7.6	2.69921
7.61	2.72191
7.62	2.72125
7.63	2.74987
7.64	2.7683
7.65	2.73869
7.66	2.72224
7.67	2.73441
7.68	2.72093
7.69	2.71764
7.7	2.75283
7.71	2.72454
7.72	2.73145
7.73	2.75086
7.74	2.71665
7.75	2.7377
7.76	2.74132
7.77	2.72783
7.78	2.73145
7.79	2.74033
7.8	2.75974
7.81	2.74297
7.82	2.72093
7.83	2.7206
7.84	2.75119
7.85	2.73935
7.86	2.73639
7.87	2.73737
7.88	2.69329
7.89	2.75316
7.9	2.76435
7.91	2.74527
7.92	2.72586
7.93	2.72816
7.94	2.7275
7.95	2.72454
7.96	2.74757
7.97	2.73441
7.98	2.7456
7.99	2.77652
8	2.78343
8.01	2.73441
8.02	2.73507
8.03	2.70481
8.04	2.70185
8.05	2.73935
8.06	2.71171
8.07	2.73474
8.08	2.72125
8.09	2.7229
8.1	2.72125
8.11	2.74494
8.12	2.75185
8.13	2.73935
8.14	2.7206
8.15	2.74955
8.16	2.72948
8.17	2.72783
8.18	2.71336
8.19	2.72619
8.2	2.71402
8.21	2.71599
8.22	2.715
8.23	2.71895
8.24	2.75481
8.25	2.73178
8.26	2.73573
8.27	2.72257
8.28	2.73968
8.29	2.70481
8.3	2.72093
8.31	2.72323
8.32	2.70481
8.33	2.73639
8.34	2.72652
8.35	2.7002
8.36	2.70053
8.37	2.71665
8.38	2.74198
8.39	2.74757
8.4	2.72093
8.41	2.72422
8.42	2.70415
8.43	2.73902
8.44	2.74626
8.45	2.75316
8.46	2.72915
8.47	2.72125
8.48	2.69691
8.49	2.70744
8.5	2.73376
8.51	2.74362
8.52	2.7206
8.53	2.70218
8.54	2.69264
8.55	2.75152
8.56	2.75448
8.57	2.75349
8.58	2.75448
8.59	2.72553
8.6	2.71073
8.61	2.72389
8.62	2.73968
8.63	2.73672
8.64	2.73573
8.65	2.75481
8.66	2.72948
8.67	2.71204
8.68	2.6752
8.69	2.69428
8.7	2.71632
8.71	2.75251
8.72	2.71994
8.73	2.76665
8.74	2.72586
8.75	2.76007
8.76	2.7456
8.77	2.72356
8.78	2.73079
8.79	2.71764
8.8	2.76862
8.81	2.7104
8.82	2.6956
8.83	2.70875
8.84	2.75547
8.85	2.72356
8.86	2.69264
8.87	2.68342
8.88	2.69428
8.89	2.7275
8.9	2.74395
8.91	2.69987
8.92	2.73376
8.93	2.74527
8.94	2.71698
8.95	2.71204
8.96	2.73343
8.97	2.69889
8.98	2.70218
8.99	2.70678
9	2.73441
9.01	2.74231
9.02	2.73014
9.03	2.73277
9.04	2.73079
9.05	2.70119
9.06	2.73244
9.07	2.73507
9.08	2.68474
9.09	2.69461
9.1	2.72586
9.11	2.73474
9.12	2.71566
9.13	2.71698
9.14	2.68803
9.15	2.6877
9.16	2.73704
9.17	2.74724
9.18	2.72093
9.19	2.72257
9.2	2.75218
9.21	2.73145
9.22	2.74987
9.23	2.70546
9.24	2.70514
9.25	2.72125
9.26	2.70974
9.27	2.71073
9.28	2.69461
9.29	2.69
9.3	2.70185
9.31	2.70152
9.32	2.70448
9.33	2.7206
9.34	2.7002
9.35	2.70941
9.36	2.74297
9.37	2.71204
9.38	2.70086
9.39	2.7275
9.4	2.73672
9.41	2.72422
9.42	2.68375
9.43	2.71336
9.44	2.69856
9.45	2.71566
9.46	2.74757
9.47	2.74132
9.48	2.7377
9.49	2.74165
9.5	2.72257
9.51	2.72487
9.52	2.7252
9.53	2.71599
9.54	2.74626
9.55	2.74593
9.56	2.70152
9.57	2.74856
9.58	2.72652
9.59	2.71665
9.6	2.70283
9.61	2.69921
9.62	2.71303
9.63	2.73836
9.64	2.70843
9.65	2.73902
9.66	2.73639
9.67	2.72158
9.68	2.71698
9.69	2.73474
9.7	2.7081
9.71	2.73079
9.72	2.70283
9.73	2.6877
9.74	2.73145
9.75	2.74428
9.76	2.71402
9.77	2.70843
9.78	2.69033
9.79	2.69954
9.8	2.71073
9.81	2.70843
9.82	2.71204
9.83	2.7206
9.84	2.71632
9.85	2.72191
9.86	2.71073
9.87	2.72191
9.88	2.72323
9.89	2.70579
9.9	2.72027
9.91	2.73145
9.92	2.73902
9.93	2.75218
9.94	2.74099
9.95	2.74395
9.96	2.69132
9.97	2.71402
9.98	2.70744
9.99	2.69592
10	2.74428
10.01	2.71698
10.02	2.69691
10.03	2.71566
10.04	2.72849
10.05	2.74165
10.06	2.71895
10.07	2.70086
10.08	2.72816
10.09	2.72981
10.1	2.72422
10.11	2.70875
10.12	2.74955
10.13	2.74165
10.14	2.73507
10.15	2.71599
10.16	2.68441
10.17	2.71435
10.18	2.73145
10.19	2.73639
10.2	2.71599
10.21	2.74593
10.22	2.73047
10.23	2.74593
10.24	2.71073
10.25	2.70777
10.26	2.72816
10.27	2.70579
10.28	2.70777
10.29	2.73902
10.3	2.74132
10.31	2.7025
10.32	2.70481
10.33	2.70777
10.34	2.76764
10.35	2.76994
10.36	2.76205
10.37	2.74626
10.38	2.73343
10.39	2.73145
10.4	2.72191
10.41	2.75185
10.42	2.71336
10.43	2.73047
10.44	2.7331
10.45	2.72882
10.46	2.71139
10.47	2.70777
10.48	2.73145
10.49	2.73737
10.5	2.72454
10.51	2.71764
10.52	2.73606
10.53	2.71468
10.54	2.71007
10.55	2.71336
10.56	2.71862
10.57	2.73704
10.58	2.69921
10.59	2.73968
10.6	2.70678
10.61	2.68441
10.62	2.72553
10.63	2.73047
10.64	2.73079
10.65	2.72389
10.66	2.68704
10.67	2.73112
10.68	2.715
10.69	2.72356
10.7	2.72422
10.71	2.71073
10.72	2.70645
10.73	2.69231
10.74	2.69099
10.75	2.69395
10.76	2.71895
10.77	2.7127
10.78	2.69527
10.79	2.69921
10.8	2.72356
10.81	2.69856
10.82	2.7081
10.83	2.71237
10.84	2.68112
10.85	2.68408
10.86	2.69428
10.87	2.71928
10.88	2.70974
10.89	2.70086
10.9	2.69264
10.91	2.68737
10.92	2.69296
10.93	2.69757
10.94	2.70579
10.95	2.69428
10.96	2.73672
10.97	2.72454
10.98	2.70448
10.99	2.69527
11	2.71204
11.01	2.69823
11.02	2.70941
11.03	2.71237
11.04	2.7025
11.05	2.71928
11.06	2.71994
11.07	2.71336
11.08	2.68244
11.09	2.7206
11.1	2.72487
11.11	2.69165
11.12	2.71599
11.13	2.73441
11.14	2.71994
11.15	2.70514
11.16	2.74362
11.17	2.72224
11.18	2.69691
11.19	2.69527
11.2	2.67323
11.21	2.68704
11.22	2.72125
11.23	2.72356
11.24	2.71698
11.25	2.69658
11.26	2.69954
11.27	2.73047
11.28	2.73672
11.29	2.72125
11.3	2.72125
11.31	2.73244
11.32	2.70908
11.33	2.7104
11.34	2.72652
11.35	2.71303
11.36	2.67158
11.37	2.68441
11.38	2.73047
11.39	2.69724
11.4	2.71731
11.41	2.72191
11.42	2.73474
11.43	2.69724
11.44	2.68704
11.45	2.72257
11.46	2.70185
11.47	2.72783
11.48	2.67915
11.49	2.69099
11.5	2.70678
11.51	2.71698
11.52	2.7206
11.53	2.7331
11.54	2.71468
11.55	2.73704
11.56	2.72652
11.57	2.69
11.58	2.72191
11.59	2.71435
11.6	2.71862
11.61	2.71764
11.62	2.69987
11.63	2.7081
11.64	2.72586
11.65	2.72093
11.66	2.70579
11.67	2.70777
11.68	2.69921
11.69	2.72389
11.7	2.69362
11.71	2.71468
11.72	2.68704
11.73	2.73441
11.74	2.70119
11.75	2.69362
11.76	2.72915
11.77	2.71566
11.78	2.70612
11.79	2.71468
11.8	2.71468
11.81	2.74264
11.82	2.71303
11.83	2.72158
11.84	2.69691
11.85	2.72685
11.86	2.7331
11.87	2.71994
11.88	2.70843
11.89	2.7081
11.9	2.73047
11.91	2.72191
11.92	2.66829
11.93	2.69099
11.94	2.7127
11.95	2.73737
11.96	2.70349
11.97	2.72553
11.98	2.71303
11.99	2.69987
12	2.73737
12.01	2.7081
12.02	2.70941
12.03	2.71599
12.04	2.69428
12.05	2.70316
12.06	2.72257
12.07	2.71764
12.08	2.71171
12.09	2.71764
12.1	2.68935
12.11	2.71698
12.12	2.72783
12.13	2.73211
12.14	2.69132
12.15	2.71665
12.16	2.72323
12.17	2.7081
12.18	2.69658
12.19	2.72158
12.2	2.69231
12.21	2.69099
12.22	2.69033
12.23	2.71237
12.24	2.71599
12.25	2.70843
12.26	2.70711
12.27	2.69658
12.28	2.73474
12.29	2.70152
12.3	2.71139
12.31	2.73639
12.32	2.71106
12.33	2.73803
12.34	2.69428
12.35	2.70579
12.36	2.71665
12.37	2.69428
12.38	2.72882
12.39	2.74626
12.4	2.70415
12.41	2.72454
12.42	2.70645
12.43	2.7229
12.44	2.70119
12.45	2.71139
12.46	2.70283
12.47	2.69165
12.48	2.72125
12.49	2.69757
12.5	2.69823
12.51	2.72915
12.52	2.72191
12.53	2.7252
12.54	2.7002
12.55	2.72619
12.56	2.73803
12.57	2.72816
12.58	2.74494
12.59	2.71402
12.6	2.69823
12.61	2.70218
12.62	2.7331
12.63	2.71007
12.64	2.72816
12.65	2.70744
12.66	2.70645
12.67	2.72125
12.68	2.72224
12.69	2.70086
12.7	2.72356
12.71	2.71468
12.72	2.71007
12.73	2.71994
12.74	2.69198
12.75	2.72619
12.76	2.72718
12.77	2.70843
12.78	2.67948
12.79	2.68375
12.8	2.69066
12.81	2.73968
12.82	2.72257
12.83	2.71797
12.84	2.71797
12.85	2.7081
12.86	2.7081
12.87	2.70579
12.88	2.69658
12.89	2.70875
12.9	2.70218
12.91	2.7104
12.92	2.6854
12.93	2.67882
12.94	2.69724
12.95	2.71829
12.96	2.73441
12.97	2.72191
12.98	2.68836
12.99	2.7127
13	2.72718
13.01	2.70514
13.02	2.71797
13.03	2.70283
13.04	2.70481
13.05	2.6752
13.06	2.69132
13.07	2.71204
13.08	2.69954
13.09	2.68507
13.1	2.6752
13.11	2.69921
13.12	2.69691
13.13	2.67586
13.14	2.715
13.15	2.70974
13.16	2.69461
13.17	2.71139
13.18	2.72586
13.19	2.71237
13.2	2.69625
13.21	2.69494
13.22	2.71171
13.23	2.68507
13.24	2.70941
13.25	2.71533
13.26	2.71566
13.27	2.69494
13.28	2.6956
13.29	2.68112
13.3	2.68935
13.31	2.69099
13.32	2.69461
13.33	2.71599
13.34	2.67323
13.35	2.68375
13.36	2.69099
13.37	2.68836
13.38	2.71171
13.39	2.715
13.4	2.7002
13.41	2.7229
13.42	2.70415
13.43	2.68902
13.44	2.70678
13.45	2.72191
13.46	2.71237
13.47	2.69494
13.48	2.70119
13.49	2.72125
13.5	2.71928
13.51	2.72356
13.52	2.72125
13.53	2.71073
13.54	2.70283
13.55	2.69494
13.56	2.71829
13.57	2.74165
13.58	2.71237
13.59	2.69954
13.6	2.68671
13.61	2.69856
13.62	2.71468
13.63	2.70218
13.64	2.7206
13.65	2.74066
13.66	2.67981
13.67	2.70941
13.68	2.72718
13.69	2.72093
13.7	2.71435
13.71	2.7275
13.72	2.68935
13.73	2.67454
13.74	2.69592
13.75	2.71303
13.76	2.70514
13.77	2.68869
13.78	2.7229
13.79	2.71829
13.8	2.70481
13.81	2.72981
13.82	2.69724
13.83	2.68507
13.84	2.70645
13.85	2.71106
13.86	2.69856
13.87	2.69165
13.88	2.70645
13.89	2.69033
13.9	2.71698
13.91	2.72093
13.92	2.7229
13.93	2.69527
13.94	2.71829
13.95	2.68902
13.96	2.67948
13.97	2.64263
13.98	2.69165
13.99	2.6956
14	2.70546
14.01	2.70974
14.02	2.68902
14.03	2.72158
14.04	2.69856
14.05	2.7104
14.06	2.70579
14.07	2.72718
14.08	2.69461
14.09	2.66961
14.1	2.70645
14.11	2.70283
14.12	2.69198
14.13	2.70283
14.14	2.69889
14.15	2.68967
14.16	2.7252
14.17	2.69066
14.18	2.71435
14.19	2.69395
14.2	2.67948
14.21	2.69296
14.22	2.71073
14.23	2.72027
14.24	2.72652
14.25	2.7025
14.26	2.73211
14.27	2.69362
14.28	2.67652
14.29	2.68737
14.3	2.68145
14.31	2.69329
14.32	2.6831
14.33	2.68606
14.34	2.71895
14.35	2.70448
14.36	2.68606
14.37	2.70678
14.38	2.70316
14.39	2.69066
14.4	2.66796
14.41	2.69987
14.42	2.68079
14.43	2.68507
14.44	2.69362
14.45	2.67981
14.46	2.70316
14.47	2.71435
14.48	2.68244
14.49	2.69264
14.5	2.67882
14.51	2.68737
14.52	2.68474
14.53	2.7025
14.54	2.66961
14.55	2.69856
14.56	2.69757
14.57	2.70908
14.58	2.69033
14.59	2.7275
14.6	2.69033
14.61	2.68967
14.62	2.69099
14.63	2.69592
14.64	2.70152
14.65	2.7104
14.66	2.71895
14.67	2.72783
14.68	2.68013
14.69	2.66731
14.7	2.72422
14.71	2.7081
14.72	2.68408
14.73	2.70579
14.74	2.69921
14.75	2.69724
14.76	2.70546
14.77	2.69757
14.78	2.70152
14.79	2.69592
14.8	2.72356
14.81	2.71303
14.82	2.70579
14.83	2.71073
14.84	2.68803
14.85	2.70974
14.86	2.70974
14.87	2.67092
14.88	2.68375
14.89	2.69592
14.9	2.67388
14.91	2.68967
14.92	2.70941
14.93	2.68573
14.94	2.68935
14.95	2.70415
14.96	2.70053
14.97	2.70185
14.98	2.69691
14.99	2.66994
15	2.72389
15.01	2.70546
15.02	2.70283
15.03	2.69987
15.04	2.69264
15.05	2.71171
15.06	2.69658
15.07	2.67619
15.08	2.74132
15.09	2.72586
15.1	2.7104
15.11	2.70612
15.12	2.7081
15.13	2.69987
15.14	2.7229
15.15	2.72981
15.16	2.70218
15.17	2.69198
15.18	2.67356
15.19	2.68079
15.2	2.68902
15.21	2.70678
15.22	2.70349
15.23	2.69132
15.24	2.66632
15.25	2.68211
15.26	2.70514
15.27	2.69395
15.28	2.69823
15.29	2.71106
15.3	2.69395
15.31	2.69592
15.32	2.68869
15.33	2.67652
15.34	2.69428
15.35	2.69757
15.36	2.69921
15.37	2.71665
15.38	2.70678
15.39	2.67619
15.4	2.66698
15.41	2.69099
15.42	2.67783
15.43	2.69461
15.44	2.69264
15.45	2.70612
15.46	2.73869
15.47	2.72257
15.48	2.72224
15.49	2.69987
15.5	2.73277
15.51	2.69033
15.52	2.68869
15.53	2.69066
15.54	2.69329
15.55	2.715
15.56	2.70579
15.57	2.70579
15.58	2.71073
15.59	2.69099
15.6	2.69724
15.61	2.72093
15.62	2.71106
15.63	2.69198
15.64	2.69132
15.65	2.69
15.66	2.67553
15.67	2.68671
15.68	2.67454
15.69	2.69592
15.7	2.71928
15.71	2.70612
15.72	2.69165
15.73	2.69099
15.74	2.69856
15.75	2.70612
15.76	2.71139
15.77	2.68046
15.78	2.68639
15.79	2.71106
15.8	2.70382
15.81	2.70744
15.82	2.67652
15.83	2.69921
15.84	2.67125
15.85	2.68277
15.86	2.7025
15.87	2.72586
15.88	2.71468
15.89	2.67915
15.9	2.69264
15.91	2.68441
15.92	2.68112
15.93	2.68079
15.94	2.68079
15.95	2.69494
15.96	2.67981
15.97	2.72586
15.98	2.69757
15.99	2.69757
16	2.69757
16.01	2.69823
16.02	2.72093
16.03	2.72981
16.04	2.70185
16.05	2.67125
16.06	2.68375
16.07	2.73178
16.08	2.70612
16.09	2.70185
16.1	2.69527
16.11	2.7331
16.12	2.70283
16.13	2.69494
16.14	2.70875
16.15	2.67454
16.16	2.70316
16.17	2.68704
16.18	2.70678
16.19	2.70086
16.2	2.68145
16.21	2.69691
16.22	2.67652
16.23	2.66303
16.24	2.6706
16.25	2.66599
16.26	2.72454
16.27	2.69461
16.28	2.65349
16.29	2.71533
16.3	2.71369
16.31	2.69494
16.32	2.68013
16.33	2.65842
16.34	2.67356
16.35	2.70481
16.36	2.69198
16.37	2.68836
16.38	2.71862
16.39	2.70283
16.4	2.67388
16.41	2.66829
16.42	2.69231
16.43	2.72915
16.44	2.71237
16.45	2.70514
16.46	2.68375
16.47	2.68967
16.48	2.66698
16.49	2.66336
16.5	2.66665
16.51	2.70283
16.52	2.68606
16.53	2.70777
16.54	2.7275
16.55	2.68013
16.56	2.66632
16.57	2.6854
16.58	2.6627
16.59	2.7252
16.6	2.7104
16.61	2.65513
16.62	2.68606
16.63	2.7206
16.64	2.69592
16.65	2.67685
16.66	2.70941
16.67	2.72027
16.68	2.67685
16.69	2.64198
16.7	2.6979
16.71	2.7002
16.72	2.70875
16.73	2.71764
16.74	2.69691
16.75	2.66862
16.76	2.71007
16.77	2.7206
16.78	2.72224
16.79	2.69921
16.8	2.70119
16.81	2.6877
16.82	2.68013
16.83	2.68112
16.84	2.69132
16.85	2.65809
16.86	2.69329
16.87	2.67816
16.88	2.6979
16.89	2.6706
16.9	2.70185
16.91	2.71764
16.92	2.69033
16.93	2.68046
16.94	2.70777
16.95	2.68869
16.96	2.67487
16.97	2.71533
16.98	2.69592
16.99	2.68803
17	2.6729
17.01	2.71204
17.02	2.73047
17.03	2.68013
17.04	2.68935
17.05	2.72191
17.06	2.70316
17.07	2.68145
17.08	2.68112
17.09	2.69921
17.1	2.69033
17.11	2.70119
17.12	2.6877
17.13	2.68573
17.14	2.67158
17.15	2.68474
17.16	2.70053
17.17	2.69165
17.18	2.70481
17.19	2.67816
17.2	2.6979
17.21	2.69296
17.22	2.69395
17.23	2.69428
17.24	2.69428
17.25	2.67553
17.26	2.68046
17.27	2.66434
17.28	2.68869
17.29	2.67027
17.3	2.6423
17.31	2.68211
17.32	2.69099
17.33	2.67981
17.34	2.65283
17.35	2.66336
17.36	2.6752
17.37	2.67224
17.38	2.68013
17.39	2.71402
17.4	2.72619
17.41	2.68967
17.42	2.69
17.43	2.69823
17.44	2.67816
17.45	2.67652
17.46	2.66632
17.47	2.6775
17.48	2.69889
17.49	2.70711
17.5	2.70415
17.51	2.6956
17.52	2.71007
17.53	2.7025
17.54	2.70349
17.55	2.69165
17.56	2.68967
17.57	2.68737
17.58	2.68079
17.59	2.70119
17.6	2.69823
17.61	2.6752
17.62	2.69165
17.63	2.67849
17.64	2.67685
17.65	2.69329
17.66	2.69264
17.67	2.72093
17.68	2.71533
17.69	2.69296
17.7	2.69987
17.71	2.68112
17.72	2.68573
17.73	2.69329
17.74	2.68639
17.75	2.6979
17.76	2.70448
17.77	2.69724
17.78	2.665
17.79	2.6956
17.8	2.70152
17.81	2.68902
17.82	2.68342
17.83	2.69757
17.84	2.6956
17.85	2.68474
17.86	2.71402
17.87	2.69658
17.88	2.6706
17.89	2.6854
17.9	2.68079
17.91	2.7275
17.92	2.69494
17.93	2.70415
17.94	2.68967
17.95	2.70579
17.96	2.6979
17.97	2.70283
17.98	2.68277
17.99	2.70218
18	2.63934
18.01	2.66369
18.02	2.68474
18.03	2.66402
18.04	2.6831
18.05	2.69296
18.06	2.68573
18.07	2.71468
18.08	2.69987
18.09	2.71402
18.1	2.70546
18.11	2.72356
18.12	2.69329
18.13	2.70152
18.14	2.67816
18.15	2.70283
18.16	2.70579
18.17	2.69954
18.18	2.69921
18.19	2.6979
18.2	2.67685
18.21	2.72093
18.22	2.70119
18.23	2.69625
18.24	2.71599
18.25	2.69132
18.26	2.68342
18.27	2.67882
18.28	2.71928
18.29	2.69
18.3	2.67981
18.31	2.68441
18.32	2.68474
18.33	2.6775
18.34	2.70678
18.35	2.71797
18.36	2.71139
18.37	2.69921
18.38	2.68639
18.39	2.71994
18.4	2.69165
18.41	2.68639
18.42	2.67158
18.43	2.65941
18.44	2.68737
18.45	2.71303
18.46	2.69099
18.47	2.66698
18.48	2.69395
18.49	2.69987
18.5	2.67323
18.51	2.67685
18.52	2.68178
18.53	2.70283
18.54	2.6854
18.55	2.65809
18.56	2.69066
18.57	2.69428
18.58	2.6854
18.59	2.67948
18.6	2.70777
18.61	2.70612
18.62	2.70415
18.63	2.665
18.64	2.70546
18.65	2.70974
18.66	2.68408
18.67	2.69527
18.68	2.71402
18.69	2.70514
18.7	2.6854
18.71	2.70777
18.72	2.7081
18.73	2.66698
18.74	2.70678
18.75	2.68277
18.76	2.68737
18.77	2.72093
18.78	2.70678
18.79	2.71533
18.8	2.6831
18.81	2.68836
18.82	2.66665
18.83	2.6831
18.84	2.67487
18.85	2.67783
18.86	2.68474
18.87	2.68277
18.88	2.66895
18.89	2.6854
18.9	2.67388
18.91	2.69198
18.92	2.67981
18.93	2.68606
18.94	2.69362
18.95	2.71566
18.96	2.69592
18.97	2.6525
18.98	2.64658
18.99	2.66665
19	2.69033
19.01	2.69329
19.02	2.70283
19.03	2.68277
19.04	2.70448
19.05	2.71829
19.06	2.68046
19.07	2.69099
19.08	2.67224
19.09	2.68244
19.1	2.65349
19.11	2.67356
19.12	2.69033
19.13	2.68408
19.14	2.65546
19.15	2.68573
19.16	2.68639
19.17	2.7002
19.18	2.69823
19.19	2.69428
19.2	2.69856
19.21	2.70546
19.22	2.68441
19.23	2.68704
19.24	2.70711
19.25	2.63276
19.26	2.67619
19.27	2.67454
19.28	2.68112
19.29	2.67421
19.3	2.65513
19.31	2.66796
19.32	2.70908
19.33	2.68112
19.34	2.6854
19.35	2.70974
19.36	2.6706
19.37	2.69033
19.38	2.69132
19.39	2.69658
19.4	2.68803
19.41	2.6752
19.42	2.68902
19.43	2.69198
19.44	2.69132
19.45	2.72224
19.46	2.70316
19.47	2.6775
19.48	2.68737
19.49	2.70481
19.5	2.68573
19.51	2.6877
19.52	2.6627
19.53	2.69494
19.54	2.6956
19.55	2.67092
19.56	2.67717
19.57	2.67619
19.58	2.65316
19.59	2.66698
19.6	2.68178
19.61	2.69856
19.62	2.69527
19.63	2.71369
19.64	2.70843
19.65	2.69
19.66	2.69132
19.67	2.67125
19.68	2.71073
19.69	2.68935
19.7	2.67487
19.71	2.68408
19.72	2.67915
19.73	2.68967
19.74	2.67586
19.75	2.71402
19.76	2.67224
19.77	2.69165
19.78	2.66961
19.79	2.67882
19.8	2.68474
19.81	2.67027
19.82	2.69264
19.83	2.69461
19.84	2.68441
19.85	2.67421
19.86	2.70481
19.87	2.69823
19.88	2.68836
19.89	2.64494
19.9	2.65546
19.91	2.66566
19.92	2.67092
19.93	2.70941
19.94	2.70612
19.95	2.70448
19.96	2.71566
19.97	2.70875
19.98	2.70875
19.99	2.71566
20	2.71566
20.01	2.68573
20.02	2.68079
20.03	2.69823
20.04	2.67356
20.05	2.66237
20.06	2.67849
20.07	2.72619
20.08	2.72158
20.09	2.69494
20.1	2.70711
20.11	2.68145
20.12	2.68277
20.13	2.69296
20.14	2.68079
20.15	2.69592
20.16	2.68507
20.17	2.68836
20.18	2.65875
20.19	2.66533
20.2	2.6854
20.21	2.67882
20.22	2.68408
20.23	2.68244
20.24	2.67981
20.25	2.68211
20.26	2.65809
20.27	2.69823
20.28	2.69165
20.29	2.70678
20.3	2.68967
20.31	2.70218
20.32	2.67553
20.33	2.70415
20.34	2.65184
20.35	2.69296
20.36	2.70448
20.37	2.68244
20.38	2.70645
20.39	2.69
20.4	2.70316
20.41	2.69954
20.42	2.69165
20.43	2.66829
20.44	2.68606
20.45	2.67454
20.46	2.69296
20.47	2.68408
20.48	2.70185
20.49	2.67421
20.5	2.67487
20.51	2.70086
20.52	2.68803
20.53	2.70086
20.54	2.66434
20.55	2.68079
20.56	2.6752
20.57	2.69362
20.58	2.67816
20.59	2.68342
20.6	2.71171
20.61	2.68836
20.62	2.71994
20.63	2.69823
20.64	2.66829
20.65	2.68145
20.66	2.68441
20.67	2.70119
20.68	2.70843
20.69	2.69889
20.7	2.68507
20.71	2.66731
20.72	2.67981
20.73	2.70448
20.74	2.67388
20.75	2.68671
20.76	2.69132
20.77	2.66994
20.78	2.68145
20.79	2.68046
20.8	2.66698
20.81	2.67092
20.82	2.66533
20.83	2.66928
20.84	2.66533
20.85	2.66763
20.86	2.66138
20.87	2.69296
20.88	2.69856
20.89	2.69264
20.9	2.69231
20.91	2.69987
20.92	2.68112
20.93	2.65217
20.94	2.69296
20.95	2.68474
20.96	2.67224
20.97	2.66467
20.98	2.64527
20.99	2.65809
21	2.67125
21.01	2.66862
21.02	2.66204
21.03	2.67027
21.04	2.665
21.05	2.66698
21.06	2.68573
21.07	2.6752
21.08	2.6775
21.09	2.7081
21.1	2.69625
21.11	2.66994
21.12	2.67388
21.13	2.67027
21.14	2.70514
21.15	2.69132
21.16	2.67421
21.17	2.64461
21.18	2.66862
21.19	2.67717
21.2	2.6979
21.21	2.70448
21.22	2.69395
21.23	2.6877
21.24	2.68046
21.25	2.70777
21.26	2.71961
21.27	2.70843
21.28	2.68178
21.29	2.69954
21.3	2.68967
21.31	2.67586
21.32	2.71402
21.33	2.67783
21.34	2.66731
21.35	2.66994
21.36	2.69889
21.37	2.68277
21.38	2.66467
21.39	2.67323
21.4	2.69987
21.41	2.67356
21.42	2.67257
21.43	2.67981
21.44	2.67356
21.45	2.6775
21.46	2.6831
21.47	2.66467
21.48	2.67388
21.49	2.68704
21.5	2.65974
21.51	2.67652
21.52	2.68935
21.53	2.67816
21.54	2.67553
21.55	2.69592
21.56	2.69132
21.57	2.65711
21.58	2.69921
21.59	2.665
21.6	2.64691
21.61	2.6775
21.62	2.68046
21.63	2.66204
21.64	2.68178
21.65	2.68606
21.66	2.68704
21.67	2.70843
21.68	2.70185
21.69	2.67816
21.7	2.6706
21.71	2.66599
21.72	2.69033
21.73	2.71829
21.74	2.70645
21.75	2.72224
21.76	2.68507
21.77	2.70645
21.78	2.68342
21.79	2.68967
21.8	2.65941
21.81	2.64987
21.82	2.65448
21.83	2.67388
21.84	2.65875
21.85	2.67487
21.86	2.66007
21.87	2.6831
21.88	2.69428
21.89	2.66994
21.9	2.72783
21.91	2.71073
21.92	2.69362
21.93	2.69494
21.94	2.68967
21.95	2.70086
21.96	2.70152
21.97	2.67915
21.98	2.67257
21.99	2.69066
22	2.66073
22.01	2.68408
22.02	2.70185
22.03	2.68902
22.04	2.66829
22.05	2.69494
22.06	2.69165
22.07	2.67586
22.08	2.67158
22.09	2.66533
22.1	2.69264
22.11	2.6479
22.12	2.68277
22.13	2.67191
22.14	2.69395
22.15	2.67816
22.16	2.70546
22.17	2.65086
22.18	2.64691
22.19	2.64165
22.2	2.69132
22.21	2.71303
22.22	2.69395
22.23	2.67816
22.24	2.68902
22.25	2.69724
22.26	2.71073
22.27	2.70579
22.28	2.69231
22.29	2.69592
22.3	2.7206
22.31	2.7127
22.32	2.68277
22.33	2.67915
22.34	2.68178
22.35	2.70349
22.36	2.66336
22.37	2.66599
22.38	2.69198
22.39	2.67191
22.4	2.69592
22.41	2.67388
22.42	2.67586
22.43	2.69592
22.44	2.6775
22.45	2.67816
22.46	2.69296
22.47	2.66961
22.48	2.70941
22.49	2.6956
22.5	2.68375
22.51	2.68737
22.52	2.69625
22.53	2.68079
22.54	2.69592
22.55	2.67257
22.56	2.68079
22.57	2.7081
22.58	2.66007
22.59	2.65217
22.6	2.68145
22.61	2.69823
22.62	2.6854
22.63	2.66303
22.64	2.6854
22.65	2.6956
22.66	2.67849
22.67	2.66763
22.68	2.68803
22.69	2.71073
22.7	2.6627
22.71	2.69428
22.72	2.69
22.73	2.68869
22.74	2.68244
22.75	2.69724
22.76	2.67487
22.77	2.66171
22.78	2.68178
22.79	2.66467
22.8	2.68704
22.81	2.66895
22.82	2.69461
22.83	2.68836
22.84	2.67915
22.85	2.6877
22.86	2.69066
22.87	2.68474
22.88	2.68079
22.89	2.67125
22.9	2.68967
22.91	2.69625
22.92	2.67125
22.93	2.67619
22.94	2.67356
22.95	2.66566
22.96	2.68079
22.97	2.67158
22.98	2.68573
22.99	2.67388
23	2.67717
23.01	2.71237
23.02	2.68046
23.03	2.67619
23.04	2.69823
23.05	2.69198
23.06	2.66895
23.07	2.69724
23.08	2.69
23.09	2.665
23.1	2.67948
23.11	2.66763
23.12	2.69231
23.13	2.68967
23.14	2.70678
23.15	2.65744
23.16	2.66665
23.17	2.68836
23.18	2.69592
23.19	2.66895
23.2	2.66204
23.21	2.66731
23.22	2.71566
23.23	2.7025
23.24	2.69856
23.25	2.66632
23.26	2.68967
23.27	2.69856
23.28	2.66303
23.29	2.71303
23.3	2.6979
23.31	2.69461
23.32	2.69461
23.33	2.69165
23.34	2.70349
23.35	2.69592
23.36	2.66928
23.37	2.67948
23.38	2.67915
23.39	2.66007
23.4	2.70448
23.41	2.71698
23.42	2.68375
23.43	2.69099
23.44	2.66007
23.45	2.67685
23.46	2.70349
23.47	2.69033
23.48	2.66237
23.49	2.65941
23.5	2.66007
23.51	2.6775
23.52	2.66829
23.53	2.68211
23.54	2.6877
23.55	2.67257
23.56	2.66763
23.57	2.68869
23.58	2.69494
23.59	2.68573
23.6	2.67027
23.61	2.69395
23.62	2.68244
23.63	2.67882
23.64	2.6627
23.65	2.67685
23.66	2.63934
23.67	2.68441
23.68	2.69132
23.69	2.67323
23.7	2.68606
23.71	2.6729
23.72	2.66171
23.73	2.67454
23.74	2.70053
23.75	2.67816
23.76	2.71533
23.77	2.64757
23.78	2.69165
23.79	2.69066
23.8	2.665
23.81	2.68441
23.82	2.69329
23.83	2.68046
23.84	2.68013
23.85	2.68441
23.86	2.69132
23.87	2.68606
23.88	2.68178
23.89	2.6877
23.9	2.69198
23.91	2.69066
23.92	2.66895
23.93	2.72454
23.94	2.68606
23.95	2.6775
23.96	2.67224
23.97	2.68244
23.98	2.69099
23.99	2.69165
24	2.66763
24.01	2.70941
24.02	2.68704
24.03	2.68967
24.04	2.66698
24.05	2.64592
24.06	2.6627
24.07	2.65579
24.08	2.64823
24.09	2.63112
24.1	2.65217
24.11	2.68046
24.12	2.69198
24.13	2.6775
24.14	2.69329
24.15	2.67388
24.16	2.67092
24.17	2.69889
24.18	2.67685
24.19	2.6831
24.2	2.65875
24.21	2.66862
24.22	2.65119
24.23	2.69658
24.24	2.67553
24.25	2.66632
24.26	2.67783
24.27	2.67717
24.28	2.68474
24.29	2.69691
24.3	2.69165
24.31	2.64263
24.32	2.68013
24.33	2.69987
24.34	2.66731
24.35	2.68671
24.36	2.67915
24.37	2.66434
24.38	2.69231
24.39	2.69987
24.4	2.67948
24.41	2.68211
24.42	2.70579
24.43	2.67981
24.44	2.69889
24.45	2.67652
24.46	2.67323
24.47	2.66106
24.48	2.69329
24.49	2.70678
24.5	2.68869
24.51	2.64625
24.52	2.65777
24.53	2.65546
24.54	2.66204
24.55	2.66763
24.56	2.68606
24.57	2.67652
24.58	2.68046
24.59	2.67257
24.6	2.69
24.61	2.70974
24.62	2.68967
24.63	2.68178
24.64	2.67586
24.65	2.68013
24.66	2.68178
24.67	2.67323
24.68	2.6752
24.69	2.65612
24.7	2.65349
24.71	2.67487
24.72	2.66566
24.73	2.70678
24.74	2.69231
24.75	2.7002
24.76	2.69494
24.77	2.67323
24.78	2.70711
24.79	2.70316
24.8	2.67783
24.81	2.66698
24.82	2.68704
24.83	2.70711
24.84	2.70086
24.85	2.69757
24.86	2.67586
24.87	2.69329
24.88	2.6706
24.89	2.6854
24.9	2.71632
24.91	2.6956
24.92	2.68803
24.93	2.65875
24.94	2.64724
24.95	2.69823
24.96	2.68573
24.97	2.665
24.98	2.67487
24.99	2.67454
25	2.66434
25.01	2.69494
25.02	2.6729
25.03	2.66566
25.04	2.67948
25.05	2.66533
25.06	2.65974
25.07	2.68375
25.08	2.69691
25.09	2.66303
25.1	2.70283
25.11	2.71731
25.12	2.67092
25.13	2.6729
25.14	2.67981
25.15	2.69231
25.16	2.68079
25.17	2.70941
25.18	2.72323
25.19	2.69823
25.2	2.68112
25.21	2.65217
25.22	2.67849
25.23	2.67981
25.24	2.68046
25.25	2.67882
25.26	2.65875
25.27	2.67191
25.28	2.67981
25.29	2.69329
25.3	2.69987
25.31	2.70119
25.32	2.67224
25.33	2.68046
25.34	2.69033
25.35	2.67487
25.36	2.68408
25.37	2.70941
25.38	2.70612
25.39	2.69231
25.4	2.70777
25.41	2.65283
25.42	2.65152
25.43	2.66862
25.44	2.67158
25.45	2.67158
25.46	2.68671
25.47	2.69066
25.48	2.67027
25.49	2.66698
25.5	2.69099
25.51	2.6775
25.52	2.66994
25.53	2.67388
25.54	2.68902
25.55	2.67191
25.56	2.66138
25.57	2.69198
25.58	2.69231
25.59	2.69856
25.6	2.66599
25.61	2.68375
25.62	2.69264
25.63	2.69
25.64	2.68639
25.65	2.66303
25.66	2.69362
25.67	2.6956
25.68	2.6604
25.69	2.67652
25.7	2.67421
25.71	2.64691
25.72	2.66533
25.73	2.65316
25.74	2.69921
25.75	2.6831
25.76	2.69099
25.77	2.67586
25.78	2.66237
25.79	2.7002
25.8	2.66796
25.81	2.67652
25.82	2.66994
25.83	2.6775
25.84	2.70185
25.85	2.67882
25.86	2.64987
25.87	2.6604
25.88	2.63934
25.89	2.63474
25.9	2.65349
25.91	2.67454
25.92	2.67158
25.93	2.66632
25.94	2.63967
25.95	2.66928
25.96	2.68244
25.97	2.66237
25.98	2.68737
25.99	2.6627
26	2.65908
26.01	2.69921
26.02	2.66961
26.03	2.66599
26.04	2.66204
26.05	2.67882
26.06	2.7127
26.07	2.66434
26.08	2.65415
26.09	2.69625
26.1	2.66763
26.11	2.68244
26.12	2.68244
26.13	2.68935
26.14	2.66434
26.15	2.65809
26.16	2.6752
26.17	2.65875
26.18	2.66171
26.19	2.67816
26.2	2.69461
26.21	2.70875
26.22	2.6831
26.23	2.67915
26.24	2.67849
26.25	2.67191
26.26	2.69461
26.27	2.66928
26.28	2.67685
26.29	2.68474
26.3	2.71237
26.31	2.69592
26.32	2.6877
26.33	2.68869
26.34	2.67849
26.35	2.67158
26.36	2.68013
26.37	2.63638
26.38	2.64592
26.39	2.65448
26.4	2.68869
26.41	2.65908
26.42	2.65481
26.43	2.66796
26.44	2.66698
26.45	2.65513
26.46	2.65777
26.47	2.665
26.48	2.69329
26.49	2.68013
26.5	2.69428
26.51	2.68211
26.52	2.67948
26.53	2.68013
26.54	2.68244
26.55	2.69987
26.56	2.70875
26.57	2.67783
26.58	2.6854
26.59	2.65283
26.6	2.63836
26.61	2.67257
26.62	2.65711
26.63	2.67158
26.64	2.69296
26.65	2.67125
26.66	2.66731
26.67	2.69691
26.68	2.70678
26.69	2.67586
26.7	2.67685
26.71	2.69757
26.72	2.69296
26.73	2.68803
26.74	2.68639
26.75	2.67092
26.76	2.68902
26.77	2.70185
26.78	2.66829
26.79	2.69
26.8	2.67388
26.81	2.67027
26.82	2.69954
26.83	2.70152
26.84	2.68967
26.85	2.70777
26.86	2.66731
26.87	2.67027
26.88	2.66994
26.89	2.69
26.9	2.70579
26.91	2.68079
26.92	2.71007
26.93	2.69033
26.94	2.69757
26.95	2.66171
26.96	2.68145
26.97	2.66796
26.98	2.66796
26.99	2.67849
27	2.67948
27.01	2.65612
27.02	2.65612
27.03	2.66434
27.04	2.65941
27.05	2.65217
27.06	2.69724
27.07	2.67652
27.08	2.67454
27.09	2.68573
27.1	2.70185
27.11	2.67191
27.12	2.66369
27.13	2.67224
27.14	2.63836
27.15	2.65809
27.16	2.68342
27.17	2.65941
27.18	2.65513
27.19	2.66862
27.2	2.67487
27.21	2.70481
27.22	2.69231
27.23	2.6604
27.24	2.70119
27.25	2.68112
27.26	2.70514
27.27	2.68803
27.28	2.66303
27.29	2.66862
27.3	2.68342
27.31	2.68342
27.32	2.68277
27.33	2.69527
27.34	2.65777
27.35	2.67717
27.36	2.6854
27.37	2.7081
27.38	2.67849
27.39	2.66862
27.4	2.68474
27.41	2.66204
27.42	2.6752
27.43	2.69921
27.44	2.68967
27.45	2.67454
27.46	2.65513
27.47	2.63737
27.48	2.68013
27.49	2.69889
27.5	2.69033
27.51	2.67092
27.52	2.68803
27.53	2.68441
27.54	2.72619
27.55	2.68803
27.56	2.65842
27.57	2.66829
27.58	2.69889
27.59	2.64132
27.6	2.6423
27.61	2.68606
27.62	2.69
27.63	2.69428
27.64	2.7206
27.65	2.66533
27.66	2.68803
27.67	2.66007
27.68	2.69362
27.69	2.66928
27.7	2.6854
27.71	2.66402
27.72	2.66303
27.73	2.67685
27.74	2.67487
27.75	2.66336
27.76	2.66599
27.77	2.67125
27.78	2.67388
27.79	2.66862
27.8	2.6752
27.81	2.67981
27.82	2.68342
27.83	2.69527
27.84	2.6956
27.85	2.70514
27.86	2.68474
27.87	2.64954
27.88	2.66467
27.89	2.67915
27.9	2.70579
27.91	2.68573
27.92	2.67356
27.93	2.67224
27.94	2.70185
27.95	2.68967
27.96	2.66632
27.97	2.70514
27.98	2.66698
27.99	2.65711
28	2.67849
28.01	2.67092
28.02	2.68375
28.03	2.70053
28.04	2.6854
28.05	2.69889
28.06	2.69329
28.07	2.70875
28.08	2.71797
28.09	2.70612
28.1	2.70546
28.11	2.70152
28.12	2.70514
28.13	2.69592
28.14	2.71961
28.15	2.69033
28.16	2.6706
28.17	2.67783
28.18	2.6752
28.19	2.69592
28.2	2.6854
28.21	2.67191
28.22	2.65809
28.23	2.67092
28.24	2.66599
28.25	2.66665
28.26	2.7002
28.27	2.66632
28.28	2.64165
28.29	2.68671
28.3	2.68342
28.31	2.68836
28.32	2.67652
28.33	2.67619
28.34	2.67257
28.35	2.63836
28.36	2.68803
28.37	2.67356
28.38	2.66369
28.39	2.65941
28.4	2.65678
28.41	2.67948
28.42	2.67224
28.43	2.68836
28.44	2.67191
28.45	2.64198
28.46	2.66467
28.47	2.63441
28.48	2.68277
28.49	2.68013
28.5	2.66073
28.51	2.67487
28.52	2.67915
28.53	2.67323
28.54	2.66007
28.55	2.68211
28.56	2.67553
28.57	2.68474
28.58	2.65941
28.59	2.69264
28.6	2.715
28.61	2.68079
28.62	2.66599
28.63	2.65382
28.64	2.66303
28.65	2.6525
28.66	2.66467
28.67	2.69
28.68	2.67948
28.69	2.68013
28.7	2.66204
28.71	2.65612
28.72	2.68836
28.73	2.70152
28.74	2.7104
28.75	2.66566
28.76	2.66336
28.77	2.68606
28.78	2.68573
28.79	2.69428
28.8	2.71073
28.81	2.68244
28.82	2.64428
28.83	2.65875
28.84	2.67816
28.85	2.68112
28.86	2.65645
28.87	2.66632
28.88	2.67717
28.89	2.67586
28.9	2.66171
28.91	2.66961
28.92	2.67553
28.93	2.66007
28.94	2.68046
28.95	2.6854
28.96	2.69395
28.97	2.66073
28.98	2.68079
28.99	2.68935
29	2.65152
29.01	2.69592
29.02	2.68869
29.03	2.68474
29.04	2.65053
29.05	2.66895
29.06	2.70612
29.07	2.65941
29.08	2.67356
29.09	2.70941
29.1	2.70514
29.11	2.68375
29.12	2.66533
29.13	2.69132
29.14	2.6831
29.15	2.67981
29.16	2.67487
29.17	2.68244
29.18	2.67356
29.19	2.69494
29.2	2.66698
29.21	2.67685
29.22	2.69231
29.23	2.65777
29.24	2.6627
29.25	2.62388
29.26	2.66928
29.27	2.68178
29.28	2.67586
29.29	2.67816
29.3	2.64296
29.31	2.63803
29.32	2.6627
29.33	2.67816
29.34	2.65645
29.35	2.67323
29.36	2.6831
29.37	2.6706
29.38	2.6877
29.39	2.66106
29.4	2.63934
29.41	2.665
29.42	2.67257
29.43	2.69428
29.44	2.67915
29.45	2.67487
29.46	2.68342
29.47	2.66599
29.48	2.6877
29.49	2.68211
29.5	2.66632
29.51	2.68079
29.52	2.67323
29.53	2.68902
29.54	2.67685
29.55	2.68902
29.56	2.66796
29.57	2.68375
29.58	2.68507
29.59	2.68474
29.6	2.71632
29.61	2.7081
29.62	2.6706
29.63	2.69428
29.64	2.70579
29.65	2.67421
29.66	2.66698
29.67	2.68869
29.68	2.7002
29.69	2.69362
29.7	2.7002
29.71	2.64954
29.72	2.65349
29.73	2.68704
29.74	2.68145
29.75	2.65579
29.76	2.66928
29.77	2.66763
29.78	2.68935
29.79	2.66731
29.8	2.6423
29.81	2.65612
29.82	2.6775
29.83	2.67652
29.84	2.69823
29.85	2.68869
29.86	2.68178
29.87	2.67191
29.88	2.64954
29.89	2.65908
29.9	2.70218
29.91	2.6854
29.92	2.70316
29.93	2.66533
29.94	2.66138
29.95	2.67224
29.96	2.68639
29.97	2.68375
29.98	2.68441
29.99	2.68704
30	2.70645
