"BIO-KINE ASCII FILE"
"_COMMENT"	"MOS-500 Spectrometer"
"_COMMENT"	"Kinetics measurement"
"_COMMENT"	"Y Unit : Volt,  X Unit : s"
"_COMMENT"	"Excitation wavelength : 380 nm"
"_COMMENT"	"Fentes bandwidth =  1 nm"
"_COMMENT"	"HV= 1000V"
"_COMMENT"	"Timebase  1 =  .01 s   5001 pts"
"_SFM"	"SFM-400 /S  Advanced mode"
"_SFM"	"Ratio : S1: 2.5, S2: 0, S3: 0, S4: 1"
"_SFM"	"Content : S1: , S2: , S3: , S4:"
"_SFM"	"Concentration : S1: , S2: , S3: , S4:"
"_SFM"	"Total volume : 209 µl  Flow : 3.5 mL/s"
"_SFM"	"Acquisition start :  10 ms before stop"
"_SFM"	"cuve=FC-15, s1=10 ml , s2=10 ml , s3=10 ml , s4=1.9 ml"
"_UNITX"	"s"
"_UNITY"	"Volt"
"_DELTAX"	0
"_DATA"
1e-300	2.98738
0.01	2.92587
0.02	2.9262
0.03	2.99988
0.04	3.03015
0.05	3.0285
0.06	3.09758
0.07	3.09429
0.08	3.10844
0.09	3.10153
0.1	3.13311
0.11	3.15647
0.12	3.17324
0.13	3.1887
0.14	3.20482
0.15	3.18015
0.16	3.16601
0.17	3.22028
0.18	3.2216
0.19	3.17489
0.2	3.16173
0.21	3.19101
0.22	3.18739
0.23	3.20943
0.24	3.21765
0.25	3.20351
0.26	3.18838
0.27	3.15383
0.28	3.19035
0.29	3.19594
0.3	3.18574
0.31	3.21009
0.32	3.20022
0.33	3.16995
0.34	3.21338
0.35	3.19726
0.36	3.21107
0.37	3.19857
0.38	3.19495
0.39	3.17555
0.4	3.18147
0.41	3.1841
0.42	3.17851
0.43	3.17489
0.44	3.2295
0.45	3.23706
0.46	3.16962
0.47	3.2068
0.48	3.20153
0.49	3.19824
0.5	3.16732
0.51	3.17061
0.52	3.19528
0.53	3.20285
0.54	3.17127
0.55	3.17719
0.56	3.15976
0.57	3.19232
0.58	3.19331
0.59	3.16502
0.6	3.19298
0.61	3.18213
0.62	3.19561
0.63	3.20219
0.64	3.1818
0.65	3.17916
0.66	3.16798
0.67	3.17555
0.68	3.19528
0.69	3.19824
0.7	3.19002
0.71	3.19463
0.72	3.1966
0.73	3.21371
0.74	3.19265
0.75	3.16436
0.76	3.16074
0.77	3.16798
0.78	3.16568
0.79	3.17719
0.8	3.15778
0.81	3.17028
0.82	3.16634
0.83	3.14791
0.84	3.12324
0.85	3.13903
0.86	3.20252
0.87	3.18574
0.88	3.17489
0.89	3.18574
0.9	3.20285
0.91	3.15745
0.92	3.19101
0.93	3.1762
0.94	3.17127
0.95	3.17028
0.96	3.15186
0.97	3.16436
0.98	3.15482
0.99	3.16568
1	3.14857
1.01	3.17818
1.02	3.18936
1.03	3.19594
1.04	3.14726
1.05	3.15482
1.06	3.17028
1.07	3.12324
1.08	3.14528
1.09	3.15482
1.1	3.17489
1.11	3.15844
1.12	3.14035
1.13	3.17884
1.14	3.19134
1.15	3.20318
1.16	3.17028
1.17	3.17982
1.18	3.19002
1.19	3.14956
1.2	3.17587
1.21	3.20384
1.22	3.15778
1.23	3.18245
1.24	3.17324
1.25	3.16239
1.26	3.17226
1.27	3.17456
1.28	3.16798
1.29	3.16765
1.3	3.1762
1.31	3.16041
1.32	3.17094
1.33	3.1568
1.34	3.16535
1.35	3.18278
1.36	3.15712
1.37	3.12587
1.38	3.11732
1.39	3.13837
1.4	3.12752
1.41	3.13508
1.42	3.11864
1.43	3.14528
1.44	3.14561
1.45	3.15943
1.46	3.15351
1.47	3.1364
1.48	3.14726
1.49	3.14758
1.5	3.13837
1.51	3.12061
1.52	3.1341
1.53	3.16074
1.54	3.13344
1.55	3.11107
1.56	3.14232
1.57	3.14002
1.58	3.12818
1.59	3.16074
1.6	3.1489
1.61	3.15515
1.62	3.1739
1.63	3.14824
1.64	3.12127
1.65	3.16765
1.66	3.14495
1.67	3.1818
1.68	3.15318
1.69	3.16305
1.7	3.13541
1.71	3.12883
1.72	3.12522
1.73	3.13508
1.74	3.17291
1.75	3.15186
1.76	3.1387
1.77	3.14265
1.78	3.15153
1.79	3.15087
1.8	3.13114
1.81	3.14693
1.82	3.15712
1.83	3.12193
1.84	3.14758
1.85	3.15383
1.86	3.08969
1.87	3.11962
1.88	3.13706
1.89	3.13936
1.9	3.14693
1.91	3.12554
1.92	3.1035
1.93	3.15055
1.94	3.15877
1.95	3.12883
1.96	3.16601
1.97	3.13114
1.98	3.15745
1.99	3.16568
2	3.13476
2.01	3.11239
2.02	3.1035
2.03	3.08903
2.04	3.10778
2.05	3.13278
2.06	3.1262
2.07	3.08706
2.08	3.13147
2.09	3.13245
2.1	3.12949
2.11	3.13936
2.12	3.15022
2.13	3.1137
2.14	3.1216
2.15	3.12456
2.16	3.09956
2.17	3.13048
2.18	3.1387
2.19	3.12094
2.2	3.13772
2.21	3.10712
2.22	3.13081
2.23	3.1364
2.24	3.12193
2.25	3.13936
2.26	3.10712
2.27	3.1012
2.28	3.16206
2.29	3.1285
2.3	3.1466
2.31	3.10943
2.32	3.10087
2.33	3.10054
2.34	3.10745
2.35	3.09561
2.36	3.12554
2.37	3.13212
2.38	3.13772
2.39	3.13969
2.4	3.11864
2.41	3.09725
2.42	3.12456
2.43	3.13476
2.44	3.13673
2.45	3.12982
2.46	3.13245
2.47	3.10975
2.48	3.11765
2.49	3.11074
2.5	3.10186
2.51	3.1716
2.52	3.10548
2.53	3.10745
2.54	3.10778
2.55	3.12324
2.56	3.13212
2.57	3.13311
2.58	3.13377
2.59	3.13048
2.6	3.11897
2.61	3.11469
2.62	3.1012
2.63	3.06962
2.64	3.09528
2.65	3.08442
2.66	3.10712
2.67	3.1239
2.68	3.1035
2.69	3.11173
2.7	3.07587
2.71	3.07752
2.72	3.10219
2.73	3.11535
2.74	3.12291
2.75	3.116
2.76	3.091
2.77	3.09396
2.78	3.10877
2.79	3.08278
2.8	3.06699
2.81	3.09692
2.82	3.10252
2.83	3.09692
2.84	3.11633
2.85	3.11568
2.86	3.09396
2.87	3.10416
2.88	3.11107
2.89	3.0716
2.9	3.116
2.91	3.10087
2.92	3.1239
2.93	3.1489
2.94	3.12752
2.95	3.09824
2.96	3.13772
2.97	3.14528
2.98	3.10646
2.99	3.11008
3	3.12883
3.01	3.12883
3.02	3.07127
3.03	3.11633
3.04	3.09331
3.05	3.11041
3.06	3.09989
3.07	3.1239
3.08	3.09923
3.09	3.10383
3.1	3.10449
3.11	3.07423
3.12	3.08146
3.13	3.0637
3.14	3.06271
3.15	3.09725
3.16	3.08837
3.17	3.07785
3.18	3.08311
3.19	3.08278
3.2	3.09166
3.21	3.05745
3.22	3.10679
3.23	3.14594
3.24	3.11469
3.25	3.09956
3.26	3.0762
3.27	3.09791
3.28	3.09166
3.29	3.1239
3.3	3.11666
3.31	3.09462
3.32	3.07488
3.33	3.06337
3.34	3.07258
3.35	3.08245
3.36	3.09364
3.37	3.09331
3.38	3.09002
3.39	3.10811
3.4	3.08015
3.41	3.10778
3.42	3.09298
3.43	3.08574
3.44	3.11206
3.45	3.10975
3.46	3.0785
3.47	3.04758
3.48	3.04594
3.49	3.06403
3.5	3.08771
3.51	3.07982
3.52	3.10745
3.53	3.07554
3.54	3.07916
3.55	3.04857
3.56	3.06337
3.57	3.07028
3.58	3.08442
3.59	3.06896
3.6	3.08048
3.61	3.06962
3.62	3.05712
3.63	3.09594
3.64	3.08311
3.65	3.08475
3.66	3.09692
3.67	3.07521
3.68	3.05186
3.69	3.05284
3.7	3.08442
3.71	3.08837
3.72	3.07752
3.73	3.10252
3.74	3.09594
3.75	3.08936
3.76	3.066
3.77	3.07719
3.78	3.11469
3.79	3.09528
3.8	3.08212
3.81	3.09528
3.82	3.07653
3.83	3.06831
3.84	3.07488
3.85	3.10252
3.86	3.07949
3.87	3.08574
3.88	3.09133
3.89	3.06074
3.9	3.06732
3.91	3.06271
3.92	3.05515
3.93	3.05383
3.94	3.05613
3.95	3.11206
3.96	3.08311
3.97	3.08739
3.98	3.0887
3.99	3.03409
4	3.04462
4.01	3.03738
4.02	3.05909
4.03	3.07357
4.04	3.06502
4.05	3.07258
4.06	3.04692
4.07	3.05646
4.08	3.03771
4.09	3.03376
4.1	3.07817
4.11	3.0989
4.12	3.07916
4.13	3.04955
4.14	3.05877
4.15	3.09396
4.16	3.06206
4.17	3.04692
4.18	3.07817
4.19	3.0762
4.2	3.08442
4.21	3.09495
4.22	3.06074
4.23	3.08146
4.24	3.07686
4.25	3.07357
4.26	3.05679
4.27	3.09298
4.28	3.10383
4.29	3.08607
4.3	3.05613
4.31	3.06173
4.32	3.08739
4.33	3.041
4.34	3.04067
4.35	3.10449
4.36	3.05581
4.37	3.04791
4.38	3.05811
4.39	3.07982
4.4	3.05712
4.41	3.08541
4.42	3.10186
4.43	3.06008
4.44	3.05317
4.45	3.02949
4.46	3.07423
4.47	3.05646
4.48	3.06765
4.49	3.08048
4.5	3.09396
4.51	3.0864
4.52	3.05613
4.53	3.07554
4.54	3.07785
4.55	3.06962
4.56	3.06896
4.57	3.07719
4.58	3.06831
4.59	3.04791
4.6	3.08179
4.61	3.05219
4.62	3.0512
4.63	3.06206
4.64	3.03179
4.65	3.0716
4.66	3.05219
4.67	3.04627
4.68	3.00284
4.69	3.06271
4.7	3.04528
4.71	3.05219
4.72	3.0364
4.73	3.05449
4.74	3.04067
4.75	3.05317
4.76	3.05909
4.77	3.02291
4.78	3.03146
4.79	3.05877
4.8	3.08113
4.81	3.09495
4.82	3.0762
4.83	3.0614
4.84	3.03804
4.85	3.05581
4.86	3.06995
4.87	3.04462
4.88	3.07587
4.89	3.06962
4.9	3.05515
4.91	3.05087
4.92	3.07225
4.93	3.07785
4.94	3.03903
4.95	3.04857
4.96	3.03673
4.97	3.03804
4.98	3.066
4.99	3.08508
5	3.08113
5.01	3.06896
5.02	3.07291
5.03	3.04462
5.04	3.0614
5.05	3.08508
5.06	3.05975
5.07	3.02521
5.08	3.041
5.09	3.04298
5.1	3.0966
5.11	3.06206
5.12	3.04627
5.13	3.0489
5.14	3.03442
5.15	3.0716
5.16	3.05811
5.17	3.04857
5.18	3.05449
5.19	3.05186
5.2	3.06798
5.21	3.05021
5.22	3.0285
5.23	3.0364
5.24	3.06962
5.25	3.04232
5.26	3.02258
5.27	3.03607
5.28	3.07192
5.29	3.02817
5.3	3.02488
5.31	3.02324
5.32	3.02817
5.33	3.06929
5.34	3.03278
5.35	3.0308
5.36	3.03113
5.37	3.03179
5.38	3.05449
5.39	3.05942
5.4	3.04824
5.41	3.04396
5.42	3.03212
5.43	3.02916
5.44	3.041
5.45	3.05909
5.46	3.05811
5.47	3.04298
5.48	2.99824
5.49	3.03574
5.5	3.04791
5.51	3.02982
5.52	3.02126
5.53	3.05844
5.54	3.04034
5.55	3.01403
5.56	3.02455
5.57	3.04396
5.58	3.0239
5.59	3.01798
5.6	3.00021
5.61	3.04166
5.62	3.07028
5.63	3.08739
5.64	3.04133
5.65	3.04166
5.66	3.05975
5.67	3.05877
5.68	3.05416
5.69	3.04923
5.7	3.03376
5.71	3.0614
5.72	3.01074
5.73	3.06798
5.74	3.0535
5.75	3.05975
5.76	3.03936
5.77	3.07225
5.78	3.0308
5.79	3.03837
5.8	3.04396
5.81	3.0308
5.82	3.02982
5.83	3.03936
5.84	3.03541
5.85	3.03969
5.86	3.03936
5.87	3.01896
5.88	3.06041
5.89	3.03804
5.9	3.02883
5.91	3.0433
5.92	3.03179
5.93	3.06238
5.94	3.02521
5.95	3.02094
5.96	2.99297
5.97	3.00876
5.98	3.03541
5.99	3.02455
6	3.00942
6.01	3.03837
6.02	3.04002
6.03	3.0239
6.04	3.03738
6.05	3.04495
6.06	3.02488
6.07	3.01271
6.08	3.0012
6.09	3.03442
6.1	3.0262
6.11	3.03409
6.12	3.02653
6.13	2.99232
6.14	3.06173
6.15	3.03903
6.16	3.03475
6.17	3.01666
6.18	3.0308
6.19	3.05317
6.2	3.02916
6.21	3.00613
6.22	2.98804
6.23	3.02883
6.24	3.00251
6.25	3.02587
6.26	3.03278
6.27	3.03969
6.28	3.02751
6.29	3.0183
6.3	3.02751
6.31	3.02094
6.32	3.04034
6.33	3.04462
6.34	3.0262
6.35	3.03311
6.36	3.06502
6.37	3.03969
6.38	3.05087
6.39	3.0512
6.4	3.02817
6.41	3.00942
6.42	2.9762
6.43	3.02751
6.44	3.02225
6.45	3.05054
6.46	3.0364
6.47	3.01995
6.48	3.0308
6.49	3.01896
6.5	2.99166
6.51	3.02357
6.52	3.01436
6.53	3.02784
6.54	3.03738
6.55	3.01962
6.56	3.01238
6.57	3.03673
6.58	3.00153
6.59	3.01798
6.6	3.00745
6.61	3.01205
6.62	2.99462
6.63	3.0035
6.64	2.99429
6.65	3.01205
6.66	3.0058
6.67	3.03771
6.68	3.01337
6.69	3.03442
6.7	3.03607
6.71	3.00547
6.72	3.00844
6.73	2.97751
6.74	3.016
6.75	3.02028
6.76	3.02061
6.77	3.03837
6.78	3.04067
6.79	3.03705
6.8	3.03903
6.81	3.01436
6.82	3.01798
6.83	3.02061
6.84	3.04857
6.85	3.01271
6.86	3.04034
6.87	3.04232
6.88	3.04462
6.89	3.04265
6.9	3.01271
6.91	3.02686
6.92	3.0012
6.93	3.01469
6.94	3.01501
6.95	3.00449
6.96	3.00153
6.97	2.99429
6.98	3.00613
6.99	3.01732
7	2.99528
7.01	3.02061
7.02	2.9933
7.03	3.01074
7.04	3.01798
7.05	3.02719
7.06	3.04034
7.07	3.00613
7.08	2.99133
7.09	3.01666
7.1	3.04034
7.11	3.02028
7.12	3.03278
7.13	3.00745
7.14	2.99001
7.15	2.96863
7.16	2.98903
7.17	3.00613
7.18	3.03179
7.19	3.02357
7.2	3.00844
7.21	3.02061
7.22	3.03607
7.23	2.99659
7.24	2.99857
7.25	3.0239
7.26	3.01403
7.27	3.00745
7.28	2.97291
7.29	3.00712
7.3	2.99495
7.31	2.99067
7.32	2.98903
7.33	2.98343
7.34	2.98541
7.35	2.95909
7.36	3.03048
7.37	3.04561
7.38	2.99857
7.39	2.98936
7.4	2.99067
7.41	3.01271
7.42	3.01041
7.43	3.0012
7.44	3.02587
7.45	3.01863
7.46	3.00646
7.47	3.02094
7.48	2.97422
7.49	2.98574
7.5	2.9887
7.51	2.99297
7.52	3.00153
7.53	3.00876
7.54	3.01238
7.55	3.03409
7.56	2.99791
7.57	2.97126
7.58	2.98245
7.59	2.98804
7.6	3.01732
7.61	3.01008
7.62	2.98278
7.63	2.99626
7.64	3.00975
7.65	2.99265
7.66	2.99396
7.67	3.01765
7.68	3.03541
7.69	2.98179
7.7	3.0012
7.71	3.03278
7.72	3.03837
7.73	2.99725
7.74	2.96567
7.75	2.97784
7.76	2.98771
7.77	3.0058
7.78	2.99561
7.79	2.98738
7.8	3.00778
7.81	2.991
7.82	3.0114
7.83	3.00021
7.84	2.9989
7.85	2.98936
7.86	3.00844
7.87	3.00482
7.88	3.01337
7.89	3.01732
7.9	2.99462
7.91	2.99265
7.92	3.01699
7.93	3.00547
7.94	3.01403
7.95	3.02751
7.96	3.01337
7.97	3.00515
7.98	3.00679
7.99	3.01469
8	3.00021
8.01	3.03705
8.02	3.00975
8.03	3.00021
8.04	3.01271
8.05	2.98475
8.06	3.00613
8.07	3.01765
8.08	2.99692
8.09	2.9864
8.1	3.00909
8.11	3.00482
8.12	2.98771
8.13	2.96008
8.14	2.98936
8.15	3.0137
8.16	3.0012
8.17	2.9989
8.18	2.97126
8.19	2.99363
8.2	2.9887
8.21	2.94758
8.22	2.98311
8.23	3.00778
8.24	2.97061
8.25	2.9933
8.26	3.02061
8.27	3.03212
8.28	3.01008
8.29	3.0137
8.3	3.00547
8.31	2.9864
8.32	3.0114
8.33	2.98442
8.34	3.01107
8.35	3.00449
8.36	2.9933
8.37	2.99133
8.38	3.00087
8.39	2.99133
8.4	2.97028
8.41	2.99593
8.42	2.97653
8.43	3.00054
8.44	3.00975
8.45	3.00482
8.46	2.98804
8.47	3.0058
8.48	2.96929
8.49	2.98047
8.5	3.00745
8.51	2.97061
8.52	2.96962
8.53	3.00646
8.54	2.95745
8.55	3.02094
8.56	2.99955
8.57	2.99857
8.58	2.97784
8.59	3.00844
8.6	2.99001
8.61	3.01238
8.62	3.02192
8.63	3.00613
8.64	2.97192
8.65	2.97916
8.66	2.99067
8.67	2.98442
8.68	3.00975
8.69	2.99988
8.7	2.98837
8.71	2.99593
8.72	2.98245
8.73	2.99922
8.74	3.01172
8.75	2.97488
8.76	2.99791
8.77	3.01567
8.78	3.00186
8.79	3.01172
8.8	2.99495
8.81	2.98936
8.82	3.00745
8.83	2.98936
8.84	3.02357
8.85	3.00317
8.86	2.96929
8.87	2.98672
8.88	2.99725
8.89	2.98146
8.9	2.96041
8.91	2.98771
8.92	3.00975
8.93	2.99001
8.94	2.99561
8.95	3.01534
8.96	2.96205
8.97	2.9637
8.98	2.9864
8.99	2.98343
9	3.00153
9.01	3.01798
9.02	3.00186
9.03	3.01074
9.04	2.99067
9.05	2.98245
9.06	2.96304
9.07	2.98936
9.08	2.9989
9.09	2.99692
9.1	2.99593
9.11	3.00251
9.12	2.98968
9.13	3.01896
9.14	3.00876
9.15	3.0262
9.16	2.97126
9.17	2.94824
9.18	2.95876
9.19	2.99001
9.2	2.99725
9.21	2.97192
9.22	2.99528
9.23	3.00186
9.24	2.96962
9.25	2.99166
9.26	2.98014
9.27	2.97258
9.28	2.98804
9.29	2.99363
9.3	3.0114
9.31	2.98541
9.32	2.99232
9.33	2.95909
9.34	2.98672
9.35	3.03771
9.36	2.97817
9.37	2.96567
9.38	2.98146
9.39	2.99396
9.4	2.97817
9.41	2.97587
9.42	2.97159
9.43	3.01107
9.44	3.0012
9.45	2.98047
9.46	2.93771
9.47	2.93639
9.48	2.97126
9.49	2.99659
9.5	2.97587
9.51	2.97061
9.52	2.94922
9.53	2.97817
9.54	3.00054
9.55	3.02192
9.56	3.00646
9.57	3.00909
9.58	3.00613
9.59	2.97061
9.6	2.96435
9.61	2.966
9.62	2.99199
9.63	2.98014
9.64	2.97982
9.65	2.97784
9.66	2.98771
9.67	2.97159
9.68	2.98936
9.69	3.00449
9.7	3.00679
9.71	2.99659
9.72	2.98672
9.73	2.94626
9.74	2.96337
9.75	2.96534
9.76	3.00383
9.77	2.99265
9.78	2.98607
9.79	2.94922
9.8	2.99791
9.81	2.95449
9.82	2.97817
9.83	2.97225
9.84	2.96863
9.85	2.98146
9.86	2.98574
9.87	2.96468
9.88	2.94626
9.89	2.99396
9.9	2.99297
9.91	2.96666
9.92	2.98936
9.93	2.98146
9.94	2.95942
9.95	2.99396
9.96	2.98047
9.97	2.96107
9.98	2.97949
9.99	2.97982
10	2.98771
10.01	2.97817
10.02	2.97028
10.03	2.97061
10.04	2.99396
10.05	3.00515
10.06	3.00844
10.07	2.98672
10.08	2.95745
10.09	2.95876
10.1	2.99955
10.11	2.9933
10.12	2.96633
10.13	2.97488
10.14	2.96468
10.15	2.97225
10.16	2.98541
10.17	2.96238
10.18	2.97883
10.19	2.966
10.2	2.97028
10.21	2.97291
10.22	2.95745
10.23	2.97291
10.24	2.96699
10.25	2.96896
10.26	2.98146
10.27	2.99067
10.28	2.98047
10.29	2.97784
10.3	2.98311
10.31	2.98212
10.32	2.9785
10.33	2.99725
10.34	3.00087
10.35	2.966
10.36	3.00087
10.37	2.94429
10.38	2.9637
10.39	2.97784
10.4	2.97159
10.41	2.96205
10.42	2.97061
10.43	3.01041
10.44	2.97093
10.45	2.93047
10.46	2.99659
10.47	2.97028
10.48	2.99857
10.49	2.99791
10.5	2.97521
10.51	2.98311
10.52	2.93146
10.53	2.98179
10.54	2.95251
10.55	2.95218
10.56	2.97455
10.57	2.97061
10.58	2.97916
10.59	2.95679
10.6	2.95251
10.61	2.93442
10.62	2.97455
10.63	2.97028
10.64	2.97488
10.65	2.98672
10.66	2.95547
10.67	2.96041
10.68	2.96797
10.69	2.95218
10.7	2.95514
10.71	2.98212
10.72	2.96962
10.73	3.00317
10.74	2.94988
10.75	2.97422
10.76	2.99692
10.77	2.98014
10.78	2.97455
10.79	2.97554
10.8	2.96107
10.81	2.96304
10.82	2.98245
10.83	2.97718
10.84	2.95547
10.85	2.9683
10.86	2.96468
10.87	2.96501
10.88	2.98047
10.89	2.98541
10.9	2.96764
10.91	2.95185
10.92	2.98541
10.93	2.99265
10.94	2.96107
10.95	2.98278
10.96	2.95547
10.97	2.99462
10.98	2.97587
10.99	3.00021
11	2.97686
11.01	3.00745
11.02	3.00416
11.03	2.97357
11.04	2.9762
11.05	2.97949
11.06	2.98047
11.07	2.991
11.08	2.97455
11.09	2.94297
11.1	2.97982
11.11	2.99462
11.12	2.95514
11.13	2.94462
11.14	2.96501
11.15	2.98212
11.16	2.9512
11.17	2.96403
11.18	2.96139
11.19	2.95843
11.2	2.96962
11.21	2.97126
11.22	2.97258
11.23	2.96929
11.24	2.93639
11.25	2.96929
11.26	2.9637
11.27	2.95613
11.28	2.98376
11.29	2.94363
11.3	2.94791
11.31	3.01469
11.32	2.97126
11.33	2.94955
11.34	2.95383
11.35	2.98574
11.36	2.99232
11.37	2.95054
11.38	2.98047
11.39	2.99495
11.4	2.97126
11.41	2.98804
11.42	2.98376
11.43	2.96435
11.44	2.97554
11.45	3.01008
11.46	2.96896
11.47	2.96732
11.48	2.98771
11.49	2.95679
11.5	2.94199
11.51	2.93639
11.52	2.96797
11.53	2.95251
11.54	2.97357
11.55	2.95218
11.56	3.00942
11.57	2.96205
11.58	2.94264
11.59	2.96205
11.6	2.95547
11.61	2.95909
11.62	2.98311
11.63	2.97258
11.64	2.9762
11.65	2.96238
11.66	2.95153
11.67	2.95087
11.68	2.95975
11.69	2.94856
11.7	2.95251
11.71	2.94133
11.72	2.93409
11.73	2.95185
11.74	2.9512
11.75	2.98541
11.76	2.96995
11.77	2.97488
11.78	2.9433
11.79	2.96567
11.8	2.92554
11.81	2.94856
11.82	2.95547
11.83	2.96468
11.84	2.97521
11.85	2.96435
11.86	2.95087
11.87	2.96107
11.88	2.94067
11.89	2.96468
11.9	2.96699
11.91	2.9558
11.92	2.96238
11.93	2.96567
11.94	2.9535
11.95	2.95482
11.96	2.96139
11.97	2.94889
11.98	2.97784
11.99	2.97982
12	2.98343
12.01	2.97324
12.02	2.96929
12.03	2.95021
12.04	2.93508
12.05	2.9512
12.06	2.9262
12.07	2.97258
12.08	2.98837
12.09	2.9683
12.1	2.96435
12.11	2.93442
12.12	2.94922
12.13	2.9433
12.14	2.95547
12.15	2.96732
12.16	2.96863
12.17	2.96304
12.18	2.96863
12.19	2.96468
12.2	2.95514
12.21	2.97291
12.22	2.98113
12.23	2.98574
12.24	2.97949
12.25	2.97258
12.26	2.9512
12.27	2.97521
12.28	2.92587
12.29	2.93409
12.3	2.97488
12.31	2.98475
12.32	2.97258
12.33	2.98672
12.34	2.95284
12.35	2.95778
12.36	2.96699
12.37	2.9581
12.38	2.93146
12.39	2.89922
12.4	2.95975
12.41	3.01962
12.42	2.97192
12.43	2.95284
12.44	2.9456
12.45	2.91041
12.46	2.98936
12.47	2.97028
12.48	2.9762
12.49	2.9433
12.5	2.94626
12.51	2.96435
12.52	2.96929
12.53	2.97028
12.54	2.95843
12.55	2.95745
12.56	2.95449
12.57	2.95547
12.58	2.98047
12.59	2.93574
12.6	2.95547
12.61	2.95975
12.62	2.96666
12.63	2.97554
12.64	2.9808
12.65	2.98837
12.66	2.94001
12.67	2.92521
12.68	2.92587
12.69	2.96468
12.7	2.95251
12.71	2.93705
12.72	2.99232
12.73	2.9887
12.74	2.96633
12.75	2.9535
12.76	2.96666
12.77	2.94922
12.78	2.95284
12.79	2.99495
12.8	2.97751
12.81	2.92422
12.82	2.92291
12.83	2.97225
12.84	2.94824
12.85	2.96896
12.86	2.95087
12.87	2.92718
12.88	2.97949
12.89	2.97488
12.9	3.00646
12.91	2.96041
12.92	2.93574
12.93	2.9456
12.94	2.98475
12.95	2.96468
12.96	2.93606
12.97	2.93409
12.98	2.94922
12.99	2.96008
13	2.97324
13.01	2.95087
13.02	2.9683
13.03	2.94199
13.04	2.98113
13.05	2.97422
13.06	2.96304
13.07	2.92817
13.08	2.89955
13.09	2.93903
13.1	2.94429
13.11	2.94133
13.12	2.92356
13.13	2.95613
13.14	2.97521
13.15	2.9558
13.16	2.94199
13.17	2.94297
13.18	2.96238
13.19	2.95646
13.2	2.9785
13.21	2.94791
13.22	2.94067
13.23	2.92751
13.24	2.9581
13.25	2.95843
13.26	2.96271
13.27	2.92126
13.28	2.92718
13.29	2.91698
13.3	2.92981
13.31	2.98936
13.32	2.97554
13.33	2.94791
13.34	2.97061
13.35	2.93343
13.36	2.93935
13.37	2.93968
13.38	2.94363
13.39	2.97817
13.4	2.95449
13.41	2.96699
13.42	2.95679
13.43	2.95909
13.44	2.96666
13.45	2.96468
13.46	2.94297
13.47	2.92225
13.48	2.95317
13.49	2.92126
13.5	2.92521
13.51	2.95054
13.52	2.96403
13.53	2.9535
13.54	2.95021
13.55	2.97324
13.56	2.94133
13.57	2.94133
13.58	2.96074
13.59	2.94001
13.6	2.92126
13.61	2.93606
13.62	2.96633
13.63	2.94396
13.64	2.9308
13.65	2.93935
13.66	2.96271
13.67	2.96107
13.68	2.9308
13.69	2.94725
13.7	2.93508
13.71	2.94429
13.72	2.96699
13.73	2.96205
13.74	2.98508
13.75	2.96008
13.76	2.95712
13.77	2.96435
13.78	2.97258
13.79	2.94297
13.8	2.93179
13.81	2.9262
13.82	2.95514
13.83	2.96139
13.84	2.94429
13.85	2.94264
13.86	2.93672
13.87	2.94429
13.88	2.92916
13.89	2.94034
13.9	2.95251
13.91	2.9683
13.92	2.94791
13.93	2.9433
13.94	2.94824
13.95	2.92981
13.96	2.96238
13.97	2.97949
13.98	2.96764
13.99	2.93442
14	2.92817
14.01	2.95317
14.02	2.94626
14.03	2.93442
14.04	2.95482
14.05	2.99199
14.06	2.93574
14.07	2.94824
14.08	2.941
14.09	2.93672
14.1	2.98047
14.11	2.97192
14.12	2.92817
14.13	2.95383
14.14	2.94593
14.15	2.98343
14.16	2.97291
14.17	2.94988
14.18	2.95317
14.19	2.92159
14.2	2.93903
14.21	2.97225
14.22	2.95416
14.23	2.93541
14.24	2.95745
14.25	2.92718
14.26	2.91139
14.27	2.93409
14.28	2.95218
14.29	2.92488
14.3	2.94495
14.31	2.94955
14.32	2.94889
14.33	2.93245
14.34	2.94659
14.35	2.9512
14.36	2.94495
14.37	2.94001
14.38	2.96501
14.39	2.95876
14.4	2.92652
14.41	2.91731
14.42	2.94659
14.43	2.93903
14.44	2.9262
14.45	2.94429
14.46	2.96633
14.47	2.95416
14.48	2.9512
14.49	2.94593
14.5	2.9535
14.51	2.96041
14.52	2.96074
14.53	2.94922
14.54	2.95449
14.55	2.94692
14.56	2.94593
14.57	2.89462
14.58	2.93672
14.59	2.95054
14.6	2.99166
14.61	2.9456
14.62	2.96304
14.63	2.96468
14.64	2.94462
14.65	2.94133
14.66	2.94528
14.67	2.92718
14.68	2.92981
14.69	2.96304
14.7	2.93245
14.71	2.97093
14.72	2.94297
14.73	2.9558
14.74	2.94429
14.75	2.93343
14.76	2.91501
14.77	2.96008
14.78	2.91501
14.79	2.90942
14.8	2.9558
14.81	2.94791
14.82	2.95021
14.83	2.93541
14.84	2.93606
14.85	2.94988
14.86	2.94955
14.87	2.91238
14.88	2.95712
14.89	2.95843
14.9	2.97554
14.91	2.9558
14.92	2.94462
14.93	2.94231
14.94	2.90646
14.95	2.96238
14.96	2.97061
14.97	2.94528
14.98	2.93179
14.99	2.94856
15	2.92093
15.01	2.93606
15.02	2.9433
15.03	2.96534
15.04	2.95942
15.05	2.94791
15.06	2.92356
15.07	2.93639
15.08	2.96534
15.09	2.96403
15.1	2.96863
15.11	2.94791
15.12	2.9762
15.13	2.96238
15.14	2.93804
15.15	2.95185
15.16	2.93672
15.17	2.95712
15.18	2.94001
15.19	2.95942
15.2	2.94955
15.21	2.94889
15.22	2.98179
15.23	2.96666
15.24	2.95514
15.25	2.91797
15.26	2.93047
15.27	2.94264
15.28	2.96337
15.29	2.94593
15.3	2.95712
15.31	2.94824
15.32	2.94231
15.33	2.93672
15.34	2.94856
15.35	2.93442
15.36	2.94231
15.37	2.95712
15.38	2.95449
15.39	2.92949
15.4	2.92126
15.41	2.96238
15.42	2.95613
15.43	2.95153
15.44	2.99988
15.45	2.94067
15.46	2.92587
15.47	2.94922
15.48	2.95317
15.49	2.94988
15.5	2.96041
15.51	2.96435
15.52	2.92817
15.53	2.90843
15.54	2.93113
15.55	2.92422
15.56	2.9558
15.57	2.90646
15.58	2.91633
15.59	2.9512
15.6	2.91764
15.61	2.90087
15.62	2.92521
15.63	2.93771
15.64	2.93771
15.65	2.93376
15.66	2.92916
15.67	2.97028
15.68	2.93574
15.69	2.9308
15.7	2.96468
15.71	2.94462
15.72	2.94067
15.73	2.96304
15.74	2.966
15.75	2.94231
15.76	2.92652
15.77	2.95876
15.78	2.95514
15.79	2.93705
15.8	2.91797
15.81	2.91863
15.82	2.93639
15.83	2.93442
15.84	2.94297
15.85	2.94034
15.86	2.91041
15.87	2.94462
15.88	2.96435
15.89	2.96074
15.9	2.93804
15.91	2.93541
15.92	2.93277
15.93	2.92883
15.94	2.92225
15.95	2.95547
15.96	2.94462
15.97	2.92225
15.98	2.90843
15.99	2.91896
16	2.92751
16.01	2.97422
16.02	2.92225
16.03	2.94231
16.04	2.98409
16.05	2.96107
16.06	2.96797
16.07	2.92488
16.08	2.9262
16.09	2.92685
16.1	2.94955
16.11	2.93738
16.12	2.94231
16.13	2.92159
16.14	2.94297
16.15	2.9558
16.16	2.95942
16.17	2.9206
16.18	2.94264
16.19	2.9535
16.2	2.93705
16.21	2.90251
16.22	2.92916
16.23	2.88804
16.24	2.92554
16.25	2.97389
16.26	2.9558
16.27	2.93508
16.28	2.95021
16.29	2.94133
16.3	2.92652
16.31	2.89659
16.32	2.91205
16.33	2.93574
16.34	2.96172
16.35	2.95876
16.36	2.97061
16.37	2.96041
16.38	2.94067
16.39	2.89823
16.4	2.94363
16.41	2.94363
16.42	2.95317
16.43	2.94264
16.44	2.93014
16.45	2.94495
16.46	2.9285
16.47	2.97061
16.48	2.92817
16.49	2.91896
16.5	2.92652
16.51	2.95185
16.52	2.9558
16.53	2.93639
16.54	2.94396
16.55	2.97949
16.56	2.93606
16.57	2.941
16.58	2.91731
16.59	2.92652
16.6	2.94396
16.61	2.966
16.62	2.95218
16.63	2.92685
16.64	2.93113
16.65	2.95712
16.66	2.91106
16.67	2.91238
16.68	2.92225
16.69	2.92784
16.7	2.92916
16.71	2.95449
16.72	2.94593
16.73	2.95745
16.74	2.93606
16.75	2.92718
16.76	2.91534
16.77	2.95482
16.78	2.93376
16.79	2.95514
16.8	2.92817
16.81	2.94067
16.82	2.93376
16.83	2.89626
16.84	2.92949
16.85	2.93277
16.86	2.94593
16.87	2.91073
16.88	2.92652
16.89	2.92916
16.9	2.98607
16.91	2.96732
16.92	2.96567
16.93	2.96797
16.94	2.97159
16.95	2.93442
16.96	2.9331
16.97	2.93574
16.98	2.92488
16.99	2.95876
17	2.95449
17.01	2.97949
17.02	2.95185
17.03	2.91929
17.04	2.94856
17.05	2.94824
17.06	2.93245
17.07	2.95317
17.08	2.93639
17.09	2.95843
17.1	2.92981
17.11	2.93705
17.12	2.95251
17.13	2.93409
17.14	2.91797
17.15	2.93212
17.16	2.94824
17.17	2.92455
17.18	2.94396
17.19	2.95778
17.2	2.91172
17.21	2.92258
17.22	2.95679
17.23	2.92356
17.24	2.91896
17.25	2.93212
17.26	2.93212
17.27	2.9262
17.28	2.95218
17.29	2.9183
17.3	2.95054
17.31	2.94692
17.32	2.93409
17.33	2.92192
17.34	2.91172
17.35	2.91698
17.36	2.91698
17.37	2.91501
17.38	2.91205
17.39	2.94429
17.4	2.91698
17.41	2.94133
17.42	2.91567
17.43	2.91962
17.44	2.93541
17.45	2.94528
17.46	2.94528
17.47	2.92324
17.48	2.93475
17.49	2.94626
17.5	2.92422
17.51	2.91205
17.52	2.9285
17.53	2.92587
17.54	2.92751
17.55	2.92093
17.56	2.97159
17.57	2.93146
17.58	2.93541
17.59	2.93672
17.6	2.93771
17.61	2.93837
17.62	2.95185
17.63	2.89429
17.64	2.90448
17.65	2.92916
17.66	2.93639
17.67	2.9387
17.68	2.92291
17.69	2.92389
17.7	2.93508
17.71	2.92258
17.72	2.94166
17.73	2.94856
17.74	2.92751
17.75	2.92916
17.76	2.92685
17.77	2.96041
17.78	2.93606
17.79	2.90679
17.8	2.94396
17.81	2.91995
17.82	2.93738
17.83	2.91797
17.84	2.94001
17.85	2.95613
17.86	2.93277
17.87	2.93935
17.88	2.93508
17.89	2.94758
17.9	2.9285
17.91	2.9285
17.92	2.96929
17.93	2.93508
17.94	2.92093
17.95	2.92718
17.96	2.89659
17.97	2.92159
17.98	2.92685
17.99	2.92126
18	2.93376
18.01	2.94725
18.02	2.92949
18.03	2.92159
18.04	2.94067
18.05	2.91633
18.06	2.92949
18.07	2.94429
18.08	2.93047
18.09	2.90745
18.1	2.891
18.11	2.91567
18.12	2.96041
18.13	2.91337
18.14	2.88705
18.15	2.92455
18.16	2.93113
18.17	2.91698
18.18	2.93179
18.19	2.92949
18.2	2.94166
18.21	2.88771
18.22	2.91106
18.23	2.96271
18.24	2.94988
18.25	2.92883
18.26	2.9331
18.27	2.94659
18.28	2.93935
18.29	2.94593
18.3	2.94791
18.31	2.94495
18.32	2.94955
18.33	2.98311
18.34	2.94692
18.35	2.91731
18.36	2.94231
18.37	2.92324
18.38	2.916
18.39	2.94297
18.4	2.93047
18.41	2.94922
18.42	2.94363
18.43	2.93047
18.44	2.92981
18.45	2.92356
18.46	2.92521
18.47	2.92291
18.48	2.94363
18.49	2.93574
18.5	2.9331
18.51	2.91698
18.52	2.90843
18.53	2.93212
18.54	2.91304
18.55	2.93804
18.56	2.94001
18.57	2.92192
18.58	2.89593
18.59	2.93541
18.6	2.93837
18.61	2.91929
18.62	2.89955
18.63	2.92093
18.64	2.94297
18.65	2.95185
18.66	2.94955
18.67	2.94363
18.68	2.9387
18.69	2.93804
18.7	2.95153
18.71	2.94955
18.72	2.93343
18.73	2.9058
18.74	2.95449
18.75	2.92784
18.76	2.93146
18.77	2.9308
18.78	2.90547
18.79	2.93245
18.8	2.94199
18.81	2.93146
18.82	2.91633
18.83	2.9387
18.84	2.94363
18.85	2.92652
18.86	2.95876
18.87	2.92981
18.88	2.92685
18.89	2.92981
18.9	2.91567
18.91	2.93968
18.92	2.90448
18.93	2.91139
18.94	2.91896
18.95	2.93343
18.96	2.95021
18.97	2.91073
18.98	2.90646
18.99	2.891
19	2.93639
19.01	2.91271
19.02	2.92027
19.03	2.92817
19.04	2.88837
19.05	2.89758
19.06	2.92455
19.07	2.91534
19.08	2.92521
19.09	2.92192
19.1	2.93738
19.11	2.95745
19.12	2.91304
19.13	2.90087
19.14	2.91962
19.15	2.93837
19.16	2.92981
19.17	2.92422
19.18	2.90119
19.19	2.87981
19.2	2.94166
19.21	2.9331
19.22	2.92784
19.23	2.95975
19.24	2.94199
19.25	2.9433
19.26	2.9433
19.27	2.95449
19.28	2.93903
19.29	2.87883
19.3	2.92685
19.31	2.92455
19.32	2.95317
19.33	2.93541
19.34	2.89922
19.35	2.93113
19.36	2.9512
19.37	2.90416
19.38	2.92981
19.39	2.92587
19.4	2.92949
19.41	2.92225
19.42	2.91666
19.43	2.9285
19.44	2.93935
19.45	2.88573
19.46	2.90613
19.47	2.91205
19.48	2.9308
19.49	2.93277
19.5	2.92685
19.51	2.88968
19.52	2.92817
19.53	2.91501
19.54	2.91139
19.55	2.94231
19.56	2.94988
19.57	2.93409
19.58	2.92159
19.59	2.91896
19.6	2.91567
19.61	2.94067
19.62	2.91435
19.63	2.91698
19.64	2.9535
19.65	2.93179
19.66	2.95284
19.67	2.93606
19.68	2.93146
19.69	2.93837
19.7	2.94955
19.71	2.94791
19.72	2.94001
19.73	2.94528
19.74	2.93409
19.75	2.92817
19.76	2.91929
19.77	2.9285
19.78	2.94988
19.79	2.95054
19.8	2.91633
19.81	2.91731
19.82	2.95218
19.83	2.93837
19.84	2.91501
19.85	2.916
19.86	2.92258
19.87	2.91008
19.88	2.92916
19.89	2.9308
19.9	2.90975
19.91	2.9331
19.92	2.94692
19.93	2.93343
19.94	2.94528
19.95	2.91468
19.96	2.91304
19.97	2.90481
19.98	2.92291
19.99	2.93014
20	2.88376
20.01	2.88902
20.02	2.93376
20.03	2.9137
20.04	2.94758
20.05	2.94462
20.06	2.92225
20.07	2.91468
20.08	2.92027
20.09	2.93738
20.1	2.92521
20.11	2.9387
20.12	2.96995
20.13	2.96699
20.14	2.94297
20.15	2.91995
20.16	2.88902
20.17	2.91764
20.18	2.93409
20.19	2.88014
20.2	2.9285
20.21	2.89462
20.22	2.90284
20.23	2.94495
20.24	2.9285
20.25	2.92949
20.26	2.93606
20.27	2.96468
20.28	2.93475
20.29	2.93113
20.3	2.89133
20.31	2.91402
20.32	2.91501
20.33	2.90218
20.34	2.90284
20.35	2.91139
20.36	2.92685
20.37	2.89758
20.38	2.89856
20.39	2.95514
20.4	2.92981
20.41	2.92389
20.42	2.8854
20.43	2.90909
20.44	2.94231
20.45	2.89133
20.46	2.93935
20.47	2.92883
20.48	2.92455
20.49	2.91995
20.5	2.94659
20.51	2.94264
20.52	2.94659
20.53	2.90284
20.54	2.92488
20.55	2.93541
20.56	2.93738
20.57	2.93574
20.58	2.95942
20.59	2.92324
20.6	2.90843
20.61	2.91962
20.62	2.92093
20.63	2.92258
20.64	2.93541
20.65	2.89198
20.66	2.90317
20.67	2.90087
20.68	2.90448
20.69	2.88475
20.7	2.87587
20.71	2.91896
20.72	2.93935
20.73	2.94889
20.74	2.91008
20.75	2.89791
20.76	2.90448
20.77	2.92324
20.78	2.93047
20.79	2.94166
20.8	2.92554
20.81	2.89988
20.82	2.92883
20.83	2.92455
20.84	2.93935
20.85	2.90613
20.86	2.90448
20.87	2.92258
20.88	2.91435
20.89	2.90383
20.9	2.9058
20.91	2.94264
20.92	2.92291
20.93	2.92685
20.94	2.94889
20.95	2.93212
20.96	2.92554
20.97	2.95613
20.98	2.94231
20.99	2.94231
21	2.92488
21.01	2.92883
21.02	2.92291
21.03	2.91172
21.04	2.93376
21.05	2.95054
21.06	2.95712
21.07	2.92652
21.08	2.92554
21.09	2.94067
21.1	2.9262
21.11	2.89922
21.12	2.90021
21.13	2.89922
21.14	2.9035
21.15	2.91402
21.16	2.93968
21.17	2.9262
21.18	2.94659
21.19	2.91402
21.2	2.91797
21.21	2.93409
21.22	2.92587
21.23	2.91995
21.24	2.89297
21.25	2.91863
21.26	2.93343
21.27	2.93212
21.28	2.93837
21.29	2.92685
21.3	2.91534
21.31	2.91073
21.32	2.88705
21.33	2.90251
21.34	2.90876
21.35	2.91995
21.36	2.92422
21.37	2.92883
21.38	2.91797
21.39	2.89955
21.4	2.90416
21.41	2.90909
21.42	2.92225
21.43	2.89297
21.44	2.92126
21.45	2.89988
21.46	2.92554
21.47	2.91534
21.48	2.93014
21.49	2.87587
21.5	2.89856
21.51	2.91929
21.52	2.9137
21.53	2.93014
21.54	2.90613
21.55	2.91073
21.56	2.88475
21.57	2.91041
21.58	2.94067
21.59	2.92521
21.6	2.89955
21.61	2.90317
21.62	2.90975
21.63	2.91271
21.64	2.92027
21.65	2.93113
21.66	2.941
21.67	2.90251
21.68	2.92192
21.69	2.90317
21.7	2.9058
21.71	2.88869
21.72	2.92718
21.73	2.9285
21.74	2.9331
21.75	2.92455
21.76	2.93179
21.77	2.916
21.78	2.94824
21.79	2.94659
21.8	2.92685
21.81	2.92587
21.82	2.90909
21.83	2.91304
21.84	2.92258
21.85	2.90481
21.86	2.93409
21.87	2.90745
21.88	2.89889
21.89	2.93442
21.9	2.93277
21.91	2.88968
21.92	2.91962
21.93	2.89823
21.94	2.891
21.95	2.90876
21.96	2.91764
21.97	2.92356
21.98	2.9137
21.99	2.92488
22	2.92916
22.01	2.93606
22.02	2.93047
22.03	2.91337
22.04	2.93475
22.05	2.91271
22.06	2.93113
22.07	2.91962
22.08	2.92126
22.09	2.95383
22.1	2.9433
22.11	2.90185
22.12	2.89593
22.13	2.90119
22.14	2.90087
22.15	2.90712
22.16	2.91106
22.17	2.92652
22.18	2.93903
22.19	2.8808
22.2	2.90745
22.21	2.9183
22.22	2.93047
22.23	2.92126
22.24	2.90745
22.25	2.88244
22.26	2.916
22.27	2.91929
22.28	2.92192
22.29	2.91731
22.3	2.91929
22.31	2.9331
22.32	2.94462
22.33	2.92817
22.34	2.91041
22.35	2.96304
22.36	2.93376
22.37	2.92159
22.38	2.8956
22.39	2.89626
22.4	2.91797
22.41	2.93376
22.42	2.89462
22.43	2.92949
22.44	2.93409
22.45	2.88014
22.46	2.90481
22.47	2.92751
22.48	2.94758
22.49	2.92356
22.5	2.90777
22.51	2.93146
22.52	2.89133
22.53	2.91073
22.54	2.93014
22.55	2.93903
22.56	2.92422
22.57	2.93672
22.58	2.94034
22.59	2.93146
22.6	2.91666
22.61	2.91731
22.62	2.91863
22.63	2.9637
22.64	2.93606
22.65	2.9183
22.66	2.93639
22.67	2.94199
22.68	2.91666
22.69	2.89725
22.7	2.90777
22.71	2.9387
22.72	2.91304
22.73	2.93146
22.74	2.90152
22.75	2.92192
22.76	2.91271
22.77	2.91995
22.78	2.92324
22.79	2.94034
22.8	2.92521
22.81	2.9262
22.82	2.9331
22.83	2.93903
22.84	2.90284
22.85	2.90481
22.86	2.91073
22.87	2.94199
22.88	2.92652
22.89	2.91304
22.9	2.9308
22.91	2.93903
22.92	2.93771
22.93	2.90745
22.94	2.89626
22.95	2.9308
22.96	2.93212
22.97	2.9433
22.98	2.93376
22.99	2.88475
23	2.92751
23.01	2.93475
23.02	2.93442
23.03	2.89198
23.04	2.92784
23.05	2.91962
23.06	2.91666
23.07	2.93639
23.08	2.92126
23.09	2.93245
23.1	2.95185
23.11	2.91567
23.12	2.88902
23.13	2.92389
23.14	2.92883
23.15	2.90054
23.16	2.90679
23.17	2.91402
23.18	2.93508
23.19	2.91271
23.2	2.94856
23.21	2.94297
23.22	2.90679
23.23	2.91896
23.24	2.90514
23.25	2.90876
23.26	2.89166
23.27	2.92126
23.28	2.92554
23.29	2.92685
23.3	2.91764
23.31	2.91666
23.32	2.91468
23.33	2.89856
23.34	2.92455
23.35	2.93343
23.36	2.91172
23.37	2.93442
23.38	2.92554
23.39	2.91731
23.4	2.92258
23.41	2.91271
23.42	2.90448
23.43	2.88376
23.44	2.93014
23.45	2.90679
23.46	2.93475
23.47	2.92159
23.48	2.91172
23.49	2.91731
23.5	2.89988
23.51	2.9081
23.52	2.90712
23.53	2.92718
23.54	2.91041
23.55	2.92981
23.56	2.87817
23.57	2.89133
23.58	2.89034
23.59	2.91172
23.6	2.9285
23.61	2.93212
23.62	2.92718
23.63	2.92718
23.64	2.92126
23.65	2.91304
23.66	2.92389
23.67	2.9137
23.68	2.92949
23.69	2.91073
23.7	2.89363
23.71	2.92356
23.72	2.92949
23.73	2.92817
23.74	2.91567
23.75	2.92587
23.76	2.916
23.77	2.94692
23.78	2.95778
23.79	2.93705
23.8	2.93508
23.81	2.90317
23.82	2.92949
23.83	2.91567
23.84	2.91633
23.85	2.91534
23.86	2.91008
23.87	2.91633
23.88	2.90876
23.89	2.93245
23.9	2.92027
23.91	2.88606
23.92	2.88935
23.93	2.92883
23.94	2.94824
23.95	2.9137
23.96	2.91995
23.97	2.92455
23.98	2.93935
23.99	2.95547
24	2.92126
24.01	2.9183
24.02	2.91764
24.03	2.91698
24.04	2.92883
24.05	2.91995
24.06	2.92093
24.07	2.91106
24.08	2.90448
24.09	2.89396
24.1	2.9285
24.11	2.94429
24.12	2.9512
24.13	2.92718
24.14	2.91402
24.15	2.89659
24.16	2.92751
24.17	2.90185
24.18	2.90613
24.19	2.91534
24.2	2.90218
24.21	2.90646
24.22	2.93014
24.23	2.941
24.24	2.91304
24.25	2.93903
24.26	2.92981
24.27	2.93606
24.28	2.91205
24.29	2.92587
24.3	2.9206
24.31	2.89462
24.32	2.89889
24.33	2.90448
24.34	2.90284
24.35	2.92324
24.36	2.93508
24.37	2.95251
24.38	2.92652
24.39	2.91896
24.4	2.89527
24.41	2.89659
24.42	2.91106
24.43	2.92126
24.44	2.89001
24.45	2.92027
24.46	2.89462
24.47	2.91797
24.48	2.91666
24.49	2.95317
24.5	2.97389
24.51	2.91271
24.52	2.91863
24.53	2.93541
24.54	2.93113
24.55	2.92258
24.56	2.9387
24.57	2.95613
24.58	2.96666
24.59	2.92027
24.6	2.91534
24.61	2.9035
24.62	2.93442
24.63	2.94889
24.64	2.90975
24.65	2.91633
24.66	2.92784
24.67	2.93903
24.68	2.94528
24.69	2.91764
24.7	2.91698
24.71	2.9535
24.72	2.91172
24.73	2.9137
24.74	2.87948
24.75	2.91962
24.76	2.90185
24.77	2.91468
24.78	2.88639
24.79	2.9035
24.8	2.93014
24.81	2.9081
24.82	2.90547
24.83	2.93508
24.84	2.93606
24.85	2.90448
24.86	2.90777
24.87	2.9137
24.88	2.91929
24.89	2.93047
24.9	2.91896
24.91	2.94462
24.92	2.9183
24.93	2.91567
24.94	2.94199
24.95	2.91304
24.96	2.91205
24.97	2.91304
24.98	2.92784
24.99	2.94166
25	2.93672
25.01	2.91534
25.02	2.93113
25.03	2.89955
25.04	2.91633
25.05	2.92916
25.06	2.92225
25.07	2.90251
25.08	2.9262
25.09	2.91073
25.1	2.88475
25.11	2.91172
25.12	2.90514
25.13	2.92652
25.14	2.92225
25.15	2.94725
25.16	2.89593
25.17	2.91205
25.18	2.87323
25.19	2.90087
25.2	2.93508
25.21	2.93508
25.22	2.91106
25.23	2.93541
25.24	2.91172
25.25	2.93442
25.26	2.93409
25.27	2.941
25.28	2.92324
25.29	2.90251
25.3	2.90745
25.31	2.89593
25.32	2.93837
25.33	2.91666
25.34	2.90646
25.35	2.87817
25.36	2.93245
25.37	2.90942
25.38	2.92291
25.39	2.90975
25.4	2.88902
25.41	2.91337
25.42	2.94034
25.43	2.90514
25.44	2.9331
25.45	2.89791
25.46	2.91468
25.47	2.89988
25.48	2.9308
25.49	2.93146
25.5	2.96041
25.51	2.89429
25.52	2.87619
25.53	2.90745
25.54	2.90383
25.55	2.91205
25.56	2.90547
25.57	2.93903
25.58	2.93606
25.59	2.92324
25.6	2.94429
25.61	2.90547
25.62	2.91764
25.63	2.92225
25.64	2.95054
25.65	2.91337
25.66	2.90218
25.67	2.92521
25.68	2.92521
25.69	2.92192
25.7	2.94692
25.71	2.89034
25.72	2.92751
25.73	2.89462
25.74	2.90218
25.75	2.88146
25.76	2.92916
25.77	2.92981
25.78	2.93376
25.79	2.87619
25.8	2.90119
25.81	2.88738
25.82	2.90613
25.83	2.89922
25.84	2.88606
25.85	2.87356
25.86	2.91106
25.87	2.92126
25.88	2.91567
25.89	2.91238
25.9	2.9035
25.91	2.93343
25.92	2.91633
25.93	2.9285
25.94	2.92455
25.95	2.9308
25.96	2.9331
25.97	2.92258
25.98	2.90021
25.99	2.93179
26	2.92324
26.01	2.9308
26.02	2.9058
26.03	2.94462
26.04	2.91633
26.05	2.89396
26.06	2.96797
26.07	2.916
26.08	2.88935
26.09	2.91863
26.1	2.90547
26.11	2.92324
26.12	2.9262
26.13	2.94231
26.14	2.92949
26.15	2.891
26.16	2.90317
26.17	2.91238
26.18	2.90317
26.19	2.90777
26.2	2.89791
26.21	2.89429
26.22	2.88146
26.23	2.90942
26.24	2.92455
26.25	2.88475
26.26	2.93935
26.27	2.94133
26.28	2.91797
26.29	2.92159
26.3	2.91238
26.31	2.89231
26.32	2.92159
26.33	2.90613
26.34	2.91633
26.35	2.89856
26.36	2.90416
26.37	2.89692
26.38	2.93672
26.39	2.93113
26.4	2.87817
26.41	2.866
26.42	2.92685
26.43	2.91567
26.44	2.94396
26.45	2.92784
26.46	2.93343
26.47	2.9137
26.48	2.92093
26.49	2.92554
26.5	2.89166
26.51	2.89988
26.52	2.91666
26.53	2.92554
26.54	2.90745
26.55	2.89034
26.56	2.9183
26.57	2.91106
26.58	2.91041
26.59	2.91501
26.6	2.93277
26.61	2.9535
26.62	2.93574
26.63	2.94955
26.64	2.89363
26.65	2.90909
26.66	2.92521
26.67	2.91896
26.68	2.92192
26.69	2.89067
26.7	2.93014
26.71	2.93672
26.72	2.91304
26.73	2.90613
26.74	2.91797
26.75	2.92521
26.76	2.9262
26.77	2.89955
26.78	2.92389
26.79	2.93277
26.8	2.94692
26.81	2.90251
26.82	2.89264
26.83	2.89429
26.84	2.90909
26.85	2.92784
26.86	2.89659
26.87	2.93475
26.88	2.90843
26.89	2.941
26.9	2.92916
26.91	2.88837
26.92	2.8785
26.93	2.89527
26.94	2.96107
26.95	2.94791
26.96	2.91172
26.97	2.92389
26.98	2.91863
26.99	2.90448
27	2.88639
27.01	2.90416
27.02	2.90416
27.03	2.91106
27.04	2.91666
27.05	2.90942
27.06	2.90284
27.07	2.88508
27.08	2.90745
27.09	2.941
27.1	2.92488
27.11	2.93672
27.12	2.92422
27.13	2.89462
27.14	2.91633
27.15	2.91863
27.16	2.9058
27.17	2.8831
27.18	2.91567
27.19	2.91271
27.2	2.92356
27.21	2.89264
27.22	2.9262
27.23	2.92093
27.24	2.90383
27.25	2.91205
27.26	2.90514
27.27	2.92389
27.28	2.89593
27.29	2.8956
27.3	2.88968
27.31	2.89034
27.32	2.88475
27.33	2.90119
27.34	2.89626
27.35	2.9308
27.36	2.92093
27.37	2.93541
27.38	2.916
27.39	2.91698
27.4	2.94955
27.41	2.93146
27.42	2.92422
27.43	2.91863
27.44	2.88672
27.45	2.87652
27.46	2.90975
27.47	2.9308
27.48	2.90843
27.49	2.9081
27.5	2.90054
27.51	2.941
27.52	2.91073
27.53	2.89692
27.54	2.89494
27.55	2.87915
27.56	2.90152
27.57	2.92225
27.58	2.89593
27.59	2.90481
27.6	2.93606
27.61	2.90843
27.62	2.92652
27.63	2.90679
27.64	2.86929
27.65	2.87258
27.66	2.90777
27.67	2.92422
27.68	2.93179
27.69	2.92521
27.7	2.89462
27.71	2.92554
27.72	2.90251
27.73	2.89429
27.74	2.93014
27.75	2.90909
27.76	2.91567
27.77	2.891
27.78	2.90777
27.79	2.92784
27.8	2.93574
27.81	2.92916
27.82	2.88738
27.83	2.91106
27.84	2.92718
27.85	2.94166
27.86	2.91534
27.87	2.89429
27.88	2.91041
27.89	2.90152
27.9	2.91402
27.91	2.93574
27.92	2.92225
27.93	2.91863
27.94	2.90712
27.95	2.89791
27.96	2.91731
27.97	2.90383
27.98	2.89725
27.99	2.92587
28	2.94199
28.01	2.90646
28.02	2.92521
28.03	2.89922
28.04	2.94067
28.05	2.90547
28.06	2.92027
28.07	2.90613
28.08	2.91271
28.09	2.93343
28.1	2.91995
28.11	2.91896
28.12	2.93804
28.13	2.91041
28.14	2.89363
28.15	2.9183
28.16	2.92817
28.17	2.9262
28.18	2.88475
28.19	2.91304
28.2	2.90087
28.21	2.94133
28.22	2.92356
28.23	2.91435
28.24	2.93146
28.25	2.92093
28.26	2.90613
28.27	2.92718
28.28	2.91106
28.29	2.92521
28.3	2.92389
28.31	2.92587
28.32	2.88573
28.33	2.92554
28.34	2.91337
28.35	2.93014
28.36	2.90383
28.37	2.89593
28.38	2.90448
28.39	2.916
28.4	2.91238
28.41	2.89758
28.42	2.92225
28.43	2.93903
28.44	2.91666
28.45	2.93409
28.46	2.90613
28.47	2.93771
28.48	2.91435
28.49	2.90745
28.5	2.89988
28.51	2.89396
28.52	2.89692
28.53	2.92258
28.54	2.89791
28.55	2.90876
28.56	2.90317
28.57	2.90317
28.58	2.90547
28.59	2.90416
28.6	2.91929
28.61	2.90876
28.62	2.92488
28.63	2.88179
28.64	2.90514
28.65	2.92291
28.66	2.91238
28.67	2.92027
28.68	2.89922
28.69	2.93771
28.7	2.90317
28.71	2.89955
28.72	2.88869
28.73	2.89429
28.74	2.92422
28.75	2.91304
28.76	2.89791
28.77	2.91764
28.78	2.92981
28.79	2.90514
28.8	2.89527
28.81	2.90251
28.82	2.93245
28.83	2.88475
28.84	2.91995
28.85	2.9058
28.86	2.91962
28.87	2.8854
28.88	2.90876
28.89	2.89527
28.9	2.90185
28.91	2.89429
28.92	2.89527
28.93	2.91797
28.94	2.88442
28.95	2.90909
28.96	2.90218
28.97	2.94988
28.98	2.89856
28.99	2.92356
29	2.93639
29.01	2.94725
29.02	2.8956
29.03	2.916
29.04	2.9183
29.05	2.93442
29.06	2.90975
29.07	2.95712
29.08	2.91896
29.09	2.89429
29.1	2.89823
29.11	2.89856
29.12	2.90646
29.13	2.91698
29.14	2.93475
29.15	2.90975
29.16	2.90317
29.17	2.92422
29.18	2.92751
29.19	2.90251
29.2	2.90185
29.21	2.91468
29.22	2.93475
29.23	2.91238
29.24	2.9308
29.25	2.91731
29.26	2.91863
29.27	2.89988
29.28	2.93376
29.29	2.91402
29.3	2.94001
29.31	2.90383
29.32	2.88212
29.33	2.87126
29.34	2.92324
29.35	2.90218
29.36	2.91731
29.37	2.9285
29.38	2.90942
29.39	2.89001
29.4	2.90317
29.41	2.92587
29.42	2.94231
29.43	2.92949
29.44	2.9206
29.45	2.92159
29.46	2.90777
29.47	2.92159
29.48	2.93212
29.49	2.92291
29.5	2.95383
29.51	2.9262
29.52	2.92389
29.53	2.92949
29.54	2.91304
29.55	2.92784
29.56	2.85481
29.57	2.90448
29.58	2.92159
29.59	2.91172
29.6	2.90021
29.61	2.87883
29.62	2.8956
29.63	2.92587
29.64	2.91501
29.65	2.92093
29.66	2.90679
29.67	2.91304
29.68	2.88738
29.69	2.90777
29.7	2.90909
29.71	2.9285
29.72	2.94495
29.73	2.93935
29.74	2.916
29.75	2.92225
29.76	2.88705
29.77	2.89429
29.78	2.90054
29.79	2.91238
29.8	2.91073
29.81	2.91271
29.82	2.93014
29.83	2.93968
29.84	2.93639
29.85	2.94462
29.86	2.90646
29.87	2.92685
29.88	2.91139
29.89	2.89593
29.9	2.90777
29.91	2.90942
29.92	2.89166
29.93	2.916
29.94	2.91698
29.95	2.89791
29.96	2.88606
29.97	2.91238
29.98	2.93639
29.99	2.94791
30	2.91402
30.01	2.90876
30.02	2.92488
30.03	2.89955
30.04	2.89659
30.05	2.92027
30.06	2.92258
30.07	2.89955
30.08	2.91172
30.09	2.89462
30.1	2.8854
30.11	2.88606
30.12	2.88113
30.13	2.90777
30.14	2.90119
30.15	2.92521
30.16	2.916
30.17	2.90185
30.18	2.87685
30.19	2.93113
30.2	2.93212
30.21	2.92949
30.22	2.88179
30.23	2.92488
30.24	2.90416
30.25	2.91205
30.26	2.90777
30.27	2.90383
30.28	2.89725
30.29	2.92652
30.3	2.87981
30.31	2.88146
30.32	2.89593
30.33	2.92093
30.34	2.91929
30.35	2.94199
30.36	2.92685
30.37	2.90646
30.38	2.89429
30.39	2.91172
30.4	2.90777
30.41	2.91567
30.42	2.95449
30.43	2.89001
30.44	2.9512
30.45	2.91238
30.46	2.89856
30.47	2.90284
30.48	2.88738
30.49	2.87323
30.5	2.89791
30.51	2.88113
30.52	2.93672
30.53	2.95054
30.54	2.90514
30.55	2.91501
30.56	2.91041
30.57	2.89462
30.58	2.90251
30.59	2.93277
30.6	2.89889
30.61	2.89001
30.62	2.92652
30.63	2.91205
30.64	2.89659
30.65	2.90284
30.66	2.92258
30.67	2.90876
30.68	2.91402
30.69	2.9387
30.7	2.92389
30.71	2.91764
30.72	2.90251
30.73	2.87126
30.74	2.88639
30.75	2.88804
30.76	2.93146
30.77	2.966
30.78	2.9058
30.79	2.91205
30.8	2.90975
30.81	2.8956
30.82	2.90481
30.83	2.92093
30.84	2.91041
30.85	2.91764
30.86	2.92883
30.87	2.92554
30.88	2.92258
30.89	2.90712
30.9	2.87784
30.91	2.89297
30.92	2.93508
30.93	2.91797
30.94	2.89791
30.95	2.89198
30.96	2.88047
30.97	2.87784
30.98	2.93804
30.99	2.92949
31	2.94824
31.01	2.96501
31.02	2.91962
31.03	2.93212
31.04	2.92027
31.05	2.94495
31.06	2.90745
31.07	2.89955
31.08	2.9308
31.09	2.90745
31.1	2.90547
31.11	2.89363
31.12	2.93409
31.13	2.92455
31.14	2.90514
31.15	2.91468
31.16	2.91929
31.17	2.93113
31.18	2.91995
31.19	2.88837
31.2	2.916
31.21	2.88212
31.22	2.90021
31.23	2.92093
31.24	2.93343
31.25	2.88902
31.26	2.90646
31.27	2.93409
31.28	2.89626
31.29	2.89955
31.3	2.88935
31.31	2.91172
31.32	2.88014
31.33	2.90547
31.34	2.90087
31.35	2.87751
31.36	2.89462
31.37	2.93705
31.38	2.92192
31.39	2.91698
31.4	2.87422
31.41	2.9183
31.42	2.9331
31.43	2.93639
31.44	2.89396
31.45	2.92949
31.46	2.89429
31.47	2.8729
31.48	2.95646
31.49	2.9387
31.5	2.92291
31.51	2.92455
31.52	2.89988
31.53	2.90317
31.54	2.90514
31.55	2.92324
31.56	2.90909
31.57	2.92225
31.58	2.90942
31.59	2.92521
31.6	2.91435
31.61	2.91041
31.62	2.89988
31.63	2.92949
31.64	2.90514
31.65	2.89659
31.66	2.9206
31.67	2.93245
31.68	2.92949
31.69	2.90712
31.7	2.90613
31.71	2.93442
31.72	2.92554
31.73	2.9262
31.74	2.91468
31.75	2.90942
31.76	2.86139
31.77	2.90613
31.78	2.92422
31.79	2.89856
31.8	2.9081
31.81	2.91271
31.82	2.92291
31.83	2.88639
31.84	2.93245
31.85	2.9285
31.86	2.91041
31.87	2.90679
31.88	2.91995
31.89	2.90087
31.9	2.93968
31.91	2.9433
31.92	2.92488
31.93	2.89166
31.94	2.89264
31.95	2.91139
31.96	2.9081
31.97	2.90119
31.98	2.90679
31.99	2.90876
32	2.91468
32.01	2.92554
32.02	2.94297
32.03	2.93277
32.04	2.91271
32.05	2.9137
32.06	2.88672
32.07	2.88376
32.08	2.91106
32.09	2.93903
32.1	2.91633
32.11	2.94791
32.12	2.94067
32.13	2.8785
32.14	2.91205
32.15	2.90185
32.16	2.91041
32.17	2.92291
32.18	2.91139
32.19	2.91008
32.2	2.90646
32.21	2.92324
32.22	2.90383
32.23	2.90876
32.24	2.90021
32.25	2.93409
32.26	2.92291
32.27	2.941
32.28	2.93245
32.29	2.90909
32.3	2.94396
32.31	2.91534
32.32	2.90843
32.33	2.90152
32.34	2.91731
32.35	2.86205
32.36	2.93179
32.37	2.87619
32.38	2.90843
32.39	2.9058
32.4	2.91534
32.41	2.92159
32.42	2.87027
32.43	2.88442
32.44	2.86994
32.45	2.89823
32.46	2.87685
32.47	2.90514
32.48	2.9206
32.49	2.94034
32.5	2.92225
32.51	2.90745
32.52	2.92324
32.53	2.88672
32.54	2.89955
32.55	2.94133
32.56	2.94199
32.57	2.92291
32.58	2.92126
32.59	2.88343
32.6	2.91073
32.61	2.89166
32.62	2.91008
32.63	2.89198
32.64	2.90152
32.65	2.91764
32.66	2.90317
32.67	2.91073
32.68	2.92356
32.69	2.89659
32.7	2.88902
32.71	2.91764
32.72	2.88804
32.73	2.92521
32.74	2.92718
32.75	2.89758
32.76	2.90613
32.77	2.8808
32.78	2.90745
32.79	2.90119
32.8	2.92949
32.81	2.9206
32.82	2.90251
32.83	2.89264
32.84	2.9035
32.85	2.89758
32.86	2.90646
32.87	2.88179
32.88	2.90975
32.89	2.89034
32.9	2.91435
32.91	2.91764
32.92	2.90087
32.93	2.91304
32.94	2.90251
32.95	2.89593
32.96	2.91271
32.97	2.90745
32.98	2.93541
32.99	2.93968
33	2.90679
33.01	2.89396
33.02	2.87093
33.03	2.88935
33.04	2.89462
33.05	2.90745
33.06	2.91666
33.07	2.90087
33.08	2.94889
33.09	2.9285
33.1	2.89067
33.11	2.92784
33.12	2.90284
33.13	2.89494
33.14	2.88508
33.15	2.87784
33.16	2.92981
33.17	2.96304
33.18	2.89856
33.19	2.93113
33.2	2.90547
33.21	2.91139
33.22	2.93113
33.23	2.92883
33.24	2.95383
33.25	2.92389
33.26	2.88113
33.27	2.89264
33.28	2.8956
33.29	2.88606
33.3	2.90087
33.31	2.92685
33.32	2.90021
33.33	2.92291
33.34	2.94824
33.35	2.88179
33.36	2.8933
33.37	2.93574
33.38	2.92225
33.39	2.90383
33.4	2.93606
33.41	2.9331
33.42	2.92455
33.43	2.89198
33.44	2.92817
33.45	2.92587
33.46	2.88935
33.47	2.91698
33.48	2.91863
33.49	2.91995
33.5	2.93804
33.51	2.88573
33.52	2.89593
33.53	2.90284
33.54	2.91633
33.55	2.8785
33.56	2.90317
33.57	2.90909
33.58	2.87817
33.59	2.88179
33.6	2.90087
33.61	2.89462
33.62	2.92718
33.63	2.91666
33.64	2.92192
33.65	2.91929
33.66	2.89955
33.67	2.87323
33.68	2.87455
33.69	2.91501
33.7	2.92916
33.71	2.93409
33.72	2.90284
33.73	2.8785
33.74	2.90481
33.75	2.9285
33.76	2.93804
33.77	2.90547
33.78	2.88968
33.79	2.87521
33.8	2.88837
33.81	2.88606
33.82	2.90777
33.83	2.90942
33.84	2.90942
33.85	2.90745
33.86	2.91172
33.87	2.91271
33.88	2.91995
33.89	2.88902
33.9	2.91435
33.91	2.9035
33.92	2.94659
33.93	2.89856
33.94	2.90416
33.95	2.90054
33.96	2.92192
33.97	2.88639
33.98	2.89429
33.99	2.93212
34	2.91501
34.01	2.91106
34.02	2.92652
34.03	2.93376
34.04	2.91205
34.05	2.90218
34.06	2.90317
34.07	2.9206
34.08	2.91468
34.09	2.93771
34.1	2.91764
34.11	2.91238
34.12	2.9081
34.13	2.92685
34.14	2.91633
34.15	2.91106
34.16	2.92389
34.17	2.94495
34.18	2.94001
34.19	2.92356
34.2	2.89396
34.21	2.88475
34.22	2.9137
34.23	2.94528
34.24	2.90975
34.25	2.92652
34.26	2.90679
34.27	2.92488
34.28	2.89593
34.29	2.93409
34.3	2.91764
34.31	2.9058
34.32	2.8808
34.33	2.89527
34.34	2.95251
34.35	2.93804
34.36	2.90613
34.37	2.92587
34.38	2.90317
34.39	2.88442
34.4	2.93903
34.41	2.91567
34.42	2.89264
34.43	2.91863
34.44	2.88606
34.45	2.87587
34.46	2.91205
34.47	2.91106
34.48	2.89133
34.49	2.89955
34.5	2.91073
34.51	2.90909
34.52	2.92916
34.53	2.92521
34.54	2.92587
34.55	2.91666
34.56	2.91929
34.57	2.90745
34.58	2.90975
34.59	2.90876
34.6	2.90547
34.61	2.88705
34.62	2.87554
34.63	2.91337
34.64	2.89889
34.65	2.90975
34.66	2.91172
34.67	2.8831
34.68	2.91238
34.69	2.89758
34.7	2.92225
34.71	2.891
34.72	2.89659
34.73	2.91041
34.74	2.9137
34.75	2.89659
34.76	2.89494
34.77	2.87521
34.78	2.91271
34.79	2.90712
34.8	2.9058
34.81	2.91041
34.82	2.91435
34.83	2.89922
34.84	2.8956
34.85	2.92916
34.86	2.90876
34.87	2.90646
34.88	2.89231
34.89	2.91534
34.9	2.93771
34.91	2.9137
34.92	2.92126
34.93	2.90481
34.94	2.88573
34.95	2.92916
34.96	2.94363
34.97	2.87751
34.98	2.90777
34.99	2.90777
35	2.94593
35.01	2.91304
35.02	2.91995
35.03	2.93606
35.04	2.9058
35.05	2.90942
35.06	2.92126
35.07	2.91501
35.08	2.91764
35.09	2.93409
35.1	2.93738
35.11	2.89692
35.12	2.89922
35.13	2.92916
35.14	2.90745
35.15	2.89001
35.16	2.89527
35.17	2.88738
35.18	2.87751
35.19	2.89955
35.2	2.90383
35.21	2.91041
35.22	2.92488
35.23	2.88606
35.24	2.90251
35.25	2.91041
35.26	2.91073
35.27	2.90185
35.28	2.90383
35.29	2.89133
35.3	2.91534
35.31	2.8808
35.32	2.92291
35.33	2.93179
35.34	2.90975
35.35	2.90646
35.36	2.90909
35.37	2.91534
35.38	2.89791
35.39	2.85152
35.4	2.89988
35.41	2.92652
35.42	2.916
35.43	2.91633
35.44	2.92159
35.45	2.91666
35.46	2.91435
35.47	2.88705
35.48	2.90843
35.49	2.91271
35.5	2.90876
35.51	2.88705
35.52	2.91041
35.53	2.92258
35.54	2.92455
35.55	2.87521
35.56	2.88244
35.57	2.92291
35.58	2.90514
35.59	2.89593
35.6	2.91139
35.61	2.90547
35.62	2.9285
35.63	2.89626
35.64	2.87718
35.65	2.89823
35.66	2.87948
35.67	2.91534
35.68	2.95251
35.69	2.91666
35.7	2.88409
35.71	2.9183
35.72	2.90975
35.73	2.90679
35.74	2.91863
35.75	2.9058
35.76	2.8933
35.77	2.90383
35.78	2.89758
35.79	2.90416
35.8	2.91929
35.81	2.91139
35.82	2.91962
35.83	2.89823
35.84	2.88869
35.85	2.94659
35.86	2.92554
35.87	2.91008
35.88	2.90284
35.89	2.90317
35.9	2.91666
35.91	2.91106
35.92	2.88771
35.93	2.90679
35.94	2.92389
35.95	2.88376
35.96	2.89133
35.97	2.9433
35.98	2.91008
35.99	2.90745
36	2.93179
36.01	2.9262
36.02	2.93475
36.03	2.91271
36.04	2.90383
36.05	2.8956
36.06	2.90087
36.07	2.91435
36.08	2.94363
36.09	2.92652
36.1	2.89856
36.11	2.91172
36.12	2.89791
36.13	2.9137
36.14	2.91271
36.15	2.91008
36.16	2.91337
36.17	2.89856
36.18	2.91995
36.19	2.92652
36.2	2.87554
36.21	2.87258
36.22	2.88869
36.23	2.91337
36.24	2.91435
36.25	2.88672
36.26	2.89001
36.27	2.89166
36.28	2.90481
36.29	2.91139
36.3	2.92554
36.31	2.91073
36.32	2.93935
36.33	2.90613
36.34	2.88705
36.35	2.891
36.36	2.91205
36.37	2.85547
36.38	2.89527
36.39	2.91041
36.4	2.90218
36.41	2.89231
36.42	2.90021
36.43	2.88113
36.44	2.90054
36.45	2.91764
36.46	2.91995
36.47	2.95745
36.48	2.91435
36.49	2.90284
36.5	2.89856
36.51	2.9137
36.52	2.90448
36.53	2.89922
36.54	2.90909
36.55	2.91633
36.56	2.89856
36.57	2.95218
36.58	2.8956
36.59	2.91666
36.6	2.89758
36.61	2.90317
36.62	2.88179
36.63	2.88606
36.64	2.87027
36.65	2.91337
36.66	2.93146
36.67	2.91764
36.68	2.89363
36.69	2.88639
36.7	2.916
36.71	2.91962
36.72	2.90745
36.73	2.91896
36.74	2.90909
36.75	2.9058
36.76	2.90975
36.77	2.91304
36.78	2.93047
36.79	2.8956
36.8	2.87258
36.81	2.90646
36.82	2.8808
36.83	2.86139
36.84	2.90942
36.85	2.9081
36.86	2.87948
36.87	2.94166
36.88	2.93804
36.89	2.88442
36.9	2.88672
36.91	2.89297
36.92	2.90547
36.93	2.89988
36.94	2.92521
36.95	2.91896
36.96	2.91435
36.97	2.91797
36.98	2.90481
36.99	2.91962
37	2.91666
37.01	2.88804
37.02	2.9081
37.03	2.9308
37.04	2.93047
37.05	2.92784
37.06	2.93179
37.07	2.89593
37.08	2.91666
37.09	2.91501
37.1	2.89264
37.11	2.90448
37.12	2.92652
37.13	2.92389
37.14	2.89363
37.15	2.89626
37.16	2.9137
37.17	2.89231
37.18	2.91567
37.19	2.8831
37.2	2.91666
37.21	2.89494
37.22	2.90284
37.23	2.88639
37.24	2.891
37.25	2.91172
37.26	2.88672
37.27	2.89429
37.28	2.90843
37.29	2.92488
37.3	2.91468
37.31	2.90317
37.32	2.93376
37.33	2.91797
37.34	2.90251
37.35	2.87685
37.36	2.92521
37.37	2.93508
37.38	2.90942
37.39	2.88935
37.4	2.9081
37.41	2.89198
37.42	2.90514
37.43	2.87488
37.44	2.87159
37.45	2.90317
37.46	2.91633
37.47	2.91666
37.48	2.93541
37.49	2.91008
37.5	2.89166
37.51	2.87258
37.52	2.87587
37.53	2.89494
37.54	2.89791
37.55	2.89593
37.56	2.89659
37.57	2.90975
37.58	2.90251
37.59	2.89823
37.6	2.90679
37.61	2.891
37.62	2.8683
37.63	2.89692
37.64	2.94659
37.65	2.90119
37.66	2.89133
37.67	2.92587
37.68	2.91106
37.69	2.90514
37.7	2.93574
37.71	2.9081
37.72	2.87652
37.73	2.85448
37.74	2.89527
37.75	2.94692
37.76	2.92718
37.77	2.90547
37.78	2.89166
37.79	2.89462
37.8	2.91008
37.81	2.90843
37.82	2.90712
37.83	2.91073
37.84	2.89823
37.85	2.87455
37.86	2.90646
37.87	2.90251
37.88	2.87915
37.89	2.89856
37.9	2.88014
37.91	2.90679
37.92	2.92422
37.93	2.91468
37.94	2.89264
37.95	2.89198
37.96	2.89626
37.97	2.93113
37.98	2.89692
37.99	2.94067
38	2.90448
38.01	2.88902
38.02	2.90514
38.03	2.94462
38.04	2.9262
38.05	2.90251
38.06	2.89791
38.07	2.86896
38.08	2.90777
38.09	2.91468
38.1	2.90777
38.11	2.92488
38.12	2.91304
38.13	2.91041
38.14	2.92521
38.15	2.8956
38.16	2.9206
38.17	2.91468
38.18	2.89462
38.19	2.92356
38.2	2.91633
38.21	2.90087
38.22	2.91666
38.23	2.91962
38.24	2.92422
38.25	2.89626
38.26	2.891
38.27	2.91633
38.28	2.92324
38.29	2.90054
38.3	2.86501
38.31	2.88277
38.32	2.87159
38.33	2.87915
38.34	2.88179
38.35	2.90185
38.36	2.88146
38.37	2.90448
38.38	2.91238
38.39	2.916
38.4	2.9183
38.41	2.91435
38.42	2.92192
38.43	2.91106
38.44	2.91863
38.45	2.89527
38.46	2.88343
38.47	2.91863
38.48	2.90975
38.49	2.86896
38.5	2.87981
38.51	2.93574
38.52	2.89231
38.53	2.9058
38.54	2.88277
38.55	2.88343
38.56	2.91962
38.57	2.92324
38.58	2.92225
38.59	2.90876
38.6	2.87192
38.61	2.90383
38.62	2.90119
38.63	2.91731
38.64	2.9137
38.65	2.94725
38.66	2.92587
38.67	2.91567
38.68	2.9456
38.69	2.92324
38.7	2.88902
38.71	2.93639
38.72	2.91106
38.73	2.91337
38.74	2.88705
38.75	2.88837
38.76	2.9137
38.77	2.9081
38.78	2.90481
38.79	2.90876
38.8	2.90119
38.81	2.87488
38.82	2.91073
38.83	2.9183
38.84	2.89955
38.85	2.92192
38.86	2.93245
38.87	2.91271
38.88	2.9206
38.89	2.93606
38.9	2.94528
38.91	2.90547
38.92	2.92488
38.93	2.89264
38.94	2.88014
38.95	2.92488
38.96	2.89462
38.97	2.91205
38.98	2.91995
38.99	2.90909
39	2.89626
39.01	2.90514
39.02	2.91172
39.03	2.91863
39.04	2.89659
39.05	2.92159
39.06	2.92126
39.07	2.91929
39.08	2.91073
39.09	2.89725
39.1	2.90054
39.11	2.90317
39.12	2.89166
39.13	2.891
39.14	2.89297
39.15	2.88606
39.16	2.90975
39.17	2.93442
39.18	2.90284
39.19	2.91337
39.2	2.88508
39.21	2.87587
39.22	2.87718
39.23	2.89527
39.24	2.87225
39.25	2.89659
39.26	2.93837
39.27	2.89955
39.28	2.90843
39.29	2.88343
39.3	2.88935
39.31	2.92554
39.32	2.91896
39.33	2.93475
39.34	2.90547
39.35	2.92521
39.36	2.89462
39.37	2.87258
39.38	2.89363
39.39	2.91962
39.4	2.92488
39.41	2.90119
39.42	2.90448
39.43	2.91501
39.44	2.91501
39.45	2.8854
39.46	2.89001
39.47	2.91797
39.48	2.91567
39.49	2.90843
39.5	2.91666
39.51	2.90613
39.52	2.86271
39.53	2.93014
39.54	2.90481
39.55	2.92554
39.56	2.90514
39.57	2.89494
39.58	2.87258
39.59	2.90975
39.6	2.91962
39.61	2.9137
39.62	2.92981
39.63	2.89856
39.64	2.91172
39.65	2.91666
39.66	2.92455
39.67	2.89067
39.68	2.92652
39.69	2.92422
39.7	2.9387
39.71	2.90679
39.72	2.90909
39.73	2.90876
39.74	2.90021
39.75	2.90547
39.76	2.90284
39.77	2.91863
39.78	2.92225
39.79	2.91666
39.8	2.91238
39.81	2.91501
39.82	2.92324
39.83	2.93574
39.84	2.93277
39.85	2.89791
39.86	2.90218
39.87	2.93014
39.88	2.92291
39.89	2.91139
39.9	2.92488
39.91	2.90777
39.92	2.90218
39.93	2.88376
39.94	2.91797
39.95	2.92192
39.96	2.9035
39.97	2.93179
39.98	2.91468
39.99	2.9206
40	2.92751
40.01	2.91402
40.02	2.92521
40.03	2.92389
40.04	2.9206
40.05	2.92159
40.06	2.88277
40.07	2.90876
40.08	2.88639
40.09	2.9206
40.1	2.90514
40.11	2.87159
40.12	2.88804
40.13	2.9183
40.14	2.92422
40.15	2.9206
40.16	2.90152
40.17	2.91271
40.18	2.92324
40.19	2.90481
40.2	2.89527
40.21	2.88771
40.22	2.92093
40.23	2.93113
40.24	2.91633
40.25	2.89659
40.26	2.88902
40.27	2.92093
40.28	2.86994
40.29	2.89297
40.3	2.91501
40.31	2.90317
40.32	2.91041
40.33	2.91962
40.34	2.92356
40.35	2.89626
40.36	2.91106
40.37	2.89264
40.38	2.90712
40.39	2.93047
40.4	2.91929
40.41	2.88968
40.42	2.88047
40.43	2.90942
40.44	2.89988
40.45	2.89856
40.46	2.92949
40.47	2.90383
40.48	2.90054
40.49	2.9433
40.5	2.92652
40.51	2.90712
40.52	2.91929
40.53	2.89725
40.54	2.87817
40.55	2.90087
40.56	2.8956
40.57	2.92488
40.58	2.91501
40.59	2.89823
40.6	2.87883
40.61	2.91271
40.62	2.91666
40.63	2.89429
40.64	2.88935
40.65	2.91764
40.66	2.9183
40.67	2.92093
40.68	2.87751
40.69	2.89198
40.7	2.92949
40.71	2.89889
40.72	2.91501
40.73	2.89034
40.74	2.88508
40.75	2.90909
40.76	2.88508
40.77	2.88935
40.78	2.90383
40.79	2.93277
40.8	2.9058
40.81	2.89396
40.82	2.91073
40.83	2.90383
40.84	2.92718
40.85	2.94001
40.86	2.90712
40.87	2.94297
40.88	2.92159
40.89	2.92587
40.9	2.91567
40.91	2.88179
40.92	2.90712
40.93	2.92126
40.94	2.9137
40.95	2.87488
40.96	2.88771
40.97	2.91435
40.98	2.916
40.99	2.91666
41	2.88771
41.01	2.88672
41.02	2.93343
41.03	2.93442
41.04	2.91764
41.05	2.89231
41.06	2.87521
41.07	2.88343
41.08	2.86764
41.09	2.89988
41.1	2.93047
41.11	2.90119
41.12	2.89396
41.13	2.92455
41.14	2.91896
41.15	2.9058
41.16	2.91238
41.17	2.916
41.18	2.92521
41.19	2.91041
41.2	2.89889
41.21	2.91567
41.22	2.91337
41.23	2.92587
41.24	2.91041
41.25	2.92258
41.26	2.94001
41.27	2.916
41.28	2.9331
41.29	2.88771
41.3	2.89462
41.31	2.92685
41.32	2.89988
41.33	2.91666
41.34	2.9285
41.35	2.92587
41.36	2.91106
41.37	2.92422
41.38	2.91205
41.39	2.88277
41.4	2.86271
41.41	2.88606
41.42	2.91797
41.43	2.92455
41.44	2.90876
41.45	2.88606
41.46	2.90185
41.47	2.88902
41.48	2.87685
41.49	2.8933
41.5	2.87455
41.51	2.89001
41.52	2.88639
41.53	2.91468
41.54	2.90021
41.55	2.87258
41.56	2.90613
41.57	2.92389
41.58	2.93146
41.59	2.94824
41.6	2.89396
41.61	2.88442
41.62	2.9081
41.63	2.90087
41.64	2.87784
41.65	2.92192
41.66	2.90021
41.67	2.87948
41.68	2.90054
41.69	2.9035
41.7	2.88869
41.71	2.89955
41.72	2.90087
41.73	2.9081
41.74	2.91402
41.75	2.90876
41.76	2.92291
41.77	2.90547
41.78	2.86863
41.79	2.88902
41.8	2.88869
41.81	2.91929
41.82	2.87422
41.83	2.8956
41.84	2.90251
41.85	2.89133
41.86	2.91041
41.87	2.88244
41.88	2.90119
41.89	2.89922
41.9	2.90317
41.91	2.90448
41.92	2.92258
41.93	2.91698
41.94	2.88968
41.95	2.90383
41.96	2.89198
41.97	2.91073
41.98	2.9331
41.99	2.88672
42	2.90777
42.01	2.93804
42.02	2.90547
42.03	2.90218
42.04	2.93376
42.05	2.91435
42.06	2.89692
42.07	2.90284
42.08	2.88179
42.09	2.88212
42.1	2.91666
42.11	2.91238
42.12	2.91304
42.13	2.90876
42.14	2.91567
42.15	2.92291
42.16	2.89692
42.17	2.9058
42.18	2.88968
42.19	2.90975
42.2	2.89166
42.21	2.90777
42.22	2.92324
42.23	2.90218
42.24	2.89264
42.25	2.87981
42.26	2.9183
42.27	2.88606
42.28	2.89988
42.29	2.89462
42.3	2.92949
42.31	2.90416
42.32	2.87981
42.33	2.93705
42.34	2.92356
42.35	2.94725
42.36	2.9262
42.37	2.90054
42.38	2.87948
42.39	2.87554
42.4	2.88968
42.41	2.90712
42.42	2.91468
42.43	2.89889
42.44	2.91205
42.45	2.90942
42.46	2.89264
42.47	2.90712
42.48	2.91764
42.49	2.93113
42.5	2.8808
42.51	2.87685
42.52	2.89494
42.53	2.93179
42.54	2.88606
42.55	2.87718
42.56	2.90054
42.57	2.89001
42.58	2.89988
42.59	2.91534
42.6	2.91567
42.61	2.92784
42.62	2.91633
42.63	2.91797
42.64	2.93146
42.65	2.91271
42.66	2.90021
42.67	2.91633
42.68	2.916
42.69	2.90218
42.7	2.92916
42.71	2.93771
42.72	2.90646
42.73	2.87718
42.74	2.88047
42.75	2.90942
42.76	2.92685
42.77	2.89133
42.78	2.90251
42.79	2.92356
42.8	2.89429
42.81	2.90021
42.82	2.91073
42.83	2.93508
42.84	2.92093
42.85	2.88738
42.86	2.95613
42.87	2.9137
42.88	2.88968
42.89	2.92554
42.9	2.93146
42.91	2.93475
42.92	2.93935
42.93	2.93146
42.94	2.89231
42.95	2.92225
42.96	2.93277
42.97	2.9081
42.98	2.90909
42.99	2.89626
43	2.92422
43.01	2.90054
43.02	2.88277
43.03	2.91008
43.04	2.93014
43.05	2.90547
43.06	2.89462
43.07	2.93113
43.08	2.93771
43.09	2.89363
43.1	2.88146
43.11	2.89396
43.12	2.90745
43.13	2.88968
43.14	2.9206
43.15	2.9058
43.16	2.90876
43.17	2.92027
43.18	2.91929
43.19	2.91896
43.2	2.91731
43.21	2.89034
43.22	2.88376
43.23	2.90152
43.24	2.88442
43.25	2.85679
43.26	2.90284
43.27	2.91435
43.28	2.88376
43.29	2.91402
43.3	2.94231
43.31	2.8956
43.32	2.89001
43.33	2.91008
43.34	2.88343
43.35	2.88837
43.36	2.92455
43.37	2.9058
43.38	2.89922
43.39	2.8729
43.4	2.89593
43.41	2.91633
43.42	2.891
43.43	2.87981
43.44	2.89856
43.45	2.89922
43.46	2.88738
43.47	2.89955
43.48	2.87455
43.49	2.916
43.5	2.90777
43.51	2.91238
43.52	2.90119
43.53	2.9285
43.54	2.88475
43.55	2.90317
43.56	2.92652
43.57	2.8831
43.58	2.88738
43.59	2.9137
43.6	2.89231
43.61	2.87488
43.62	2.93804
43.63	2.90152
43.64	2.88869
43.65	2.89593
43.66	2.89264
43.67	2.86731
43.68	2.90185
43.69	2.9308
43.7	2.89791
43.71	2.91995
43.72	2.89527
43.73	2.88212
43.74	2.89791
43.75	2.89692
43.76	2.89725
43.77	2.92093
43.78	2.91435
43.79	2.90613
43.8	2.88968
43.81	2.93245
43.82	2.89198
43.83	2.91205
43.84	2.89429
43.85	2.93475
43.86	2.90514
43.87	2.93277
43.88	2.9081
43.89	2.88573
43.9	2.93738
43.91	2.89725
43.92	2.891
43.93	2.88244
43.94	2.89198
43.95	2.87619
43.96	2.88442
43.97	2.91402
43.98	2.94955
43.99	2.87718
44	2.85382
44.01	2.89133
44.02	2.89363
44.03	2.88738
44.04	2.90777
44.05	2.91995
44.06	2.91106
44.07	2.90087
44.08	2.90613
44.09	2.89856
44.1	2.89791
44.11	2.91271
44.12	2.90185
44.13	2.89462
44.14	2.91172
44.15	2.91896
44.16	2.92324
44.17	2.90152
44.18	2.89922
44.19	2.8956
44.2	2.9058
44.21	2.87389
44.22	2.90646
44.23	2.92225
44.24	2.92652
44.25	2.94659
44.26	2.92093
44.27	2.90218
44.28	2.87488
44.29	2.87488
44.3	2.89856
44.31	2.93606
44.32	2.90777
44.33	2.91172
44.34	2.8785
44.35	2.92883
44.36	2.91731
44.37	2.90317
44.38	2.8933
44.39	2.91567
44.4	2.89133
44.41	2.9331
44.42	2.91139
44.43	2.90547
44.44	2.87718
44.45	2.90909
44.46	2.91962
44.47	2.9081
44.48	2.90679
44.49	2.91534
44.5	2.91008
44.51	2.92751
44.52	2.93376
44.53	2.90218
44.54	2.90646
44.55	2.91896
44.56	2.88277
44.57	2.90054
44.58	2.89922
44.59	2.90448
44.6	2.90054
44.61	2.90383
44.62	2.89133
44.63	2.87356
44.64	2.87225
44.65	2.88014
44.66	2.86994
44.67	2.89198
44.68	2.916
44.69	2.94133
44.7	2.91139
44.71	2.91468
44.72	2.9137
44.73	2.9137
44.74	2.92784
44.75	2.91764
44.76	2.91337
44.77	2.94133
44.78	2.91337
44.79	2.91863
44.8	2.91205
44.81	2.93113
44.82	2.91205
44.83	2.90613
44.84	2.92652
44.85	2.91238
44.86	2.91106
44.87	2.92817
44.88	2.92455
44.89	2.91435
44.9	2.91962
44.91	2.90383
44.92	2.92093
44.93	2.87948
44.94	2.89264
44.95	2.91731
44.96	2.88376
44.97	2.87455
44.98	2.91896
44.99	2.89396
45	2.89429
45.01	2.89692
45.02	2.91008
45.03	2.89034
45.04	2.87784
45.05	2.86008
45.06	2.86929
45.07	2.91633
45.08	2.88606
45.09	2.89856
45.1	2.88475
45.11	2.88179
45.12	2.91139
45.13	2.89001
45.14	2.87422
45.15	2.89001
45.16	2.88804
45.17	2.93574
45.18	2.93343
45.19	2.91633
45.2	2.8956
45.21	2.90317
45.22	2.91633
45.23	2.91797
45.24	2.95251
45.25	2.91106
45.26	2.90416
45.27	2.91929
45.28	2.92422
45.29	2.90152
45.3	2.8956
45.31	2.89758
45.32	2.94692
45.33	2.89922
45.34	2.8831
45.35	2.86961
45.36	2.91435
45.37	2.88606
45.38	2.95054
45.39	2.90975
45.4	2.89823
45.41	2.92488
45.42	2.92751
45.43	2.94626
45.44	2.93047
45.45	2.89001
45.46	2.90646
45.47	2.87883
45.48	2.90284
45.49	2.93606
45.5	2.90317
45.51	2.89758
45.52	2.88475
45.53	2.88869
45.54	2.90218
45.55	2.90942
45.56	2.89922
45.57	2.91041
45.58	2.91073
45.59	2.90087
45.6	2.91797
45.61	2.91172
45.62	2.91304
45.63	2.92916
45.64	2.89922
45.65	2.88837
45.66	2.91567
45.67	2.90284
45.68	2.90481
45.69	2.89198
45.7	2.89166
45.71	2.92389
45.72	2.88573
45.73	2.90021
45.74	2.86633
45.75	2.89527
45.76	2.88804
45.77	2.91633
45.78	2.8933
45.79	2.891
45.8	2.8831
45.81	2.89593
45.82	2.88968
45.83	2.88705
45.84	2.90087
45.85	2.87915
45.86	2.91238
45.87	2.91172
45.88	2.89955
45.89	2.89791
45.9	2.89823
45.91	2.87784
45.92	2.90843
45.93	2.92027
45.94	2.91238
45.95	2.87455
45.96	2.93047
45.97	2.90383
45.98	2.90712
45.99	2.92521
46	2.93935
46.01	2.89264
46.02	2.89955
46.03	2.91666
46.04	2.9285
46.05	2.91534
46.06	2.9433
46.07	2.94067
46.08	2.91501
46.09	2.9331
46.1	2.88343
46.11	2.90975
46.12	2.90119
46.13	2.88869
46.14	2.91205
46.15	2.92685
46.16	2.90679
46.17	2.87389
46.18	2.90613
46.19	2.89823
46.2	2.89527
46.21	2.92126
46.22	2.92652
46.23	2.93409
46.24	2.90087
46.25	2.89494
46.26	2.90185
46.27	2.90481
46.28	2.90481
46.29	2.94922
46.3	2.91402
46.31	2.90745
46.32	2.90646
46.33	2.91008
46.34	2.88376
46.35	2.89823
46.36	2.90251
46.37	2.89429
46.38	2.90416
46.39	2.90185
46.4	2.91698
46.41	2.89725
46.42	2.89659
46.43	2.90284
46.44	2.88277
46.45	2.86271
46.46	2.91139
46.47	2.92291
46.48	2.89922
46.49	2.91633
46.5	2.90745
46.51	2.89889
46.52	2.89429
46.53	2.88047
46.54	2.90613
46.55	2.89264
46.56	2.89396
46.57	2.92225
46.58	2.89363
46.59	2.93014
46.6	2.89462
46.61	2.88508
46.62	2.90646
46.63	2.92324
46.64	2.91238
46.65	2.90909
46.66	2.91271
46.67	2.91731
46.68	2.88113
46.69	2.92291
46.7	2.91567
46.71	2.92817
46.72	2.90975
46.73	2.87225
46.74	2.91205
46.75	2.92356
46.76	2.90054
46.77	2.87587
46.78	2.9137
46.79	2.89856
46.8	2.94166
46.81	2.92422
46.82	2.91698
46.83	2.88508
46.84	2.89889
46.85	2.90547
46.86	2.89856
46.87	2.89429
46.88	2.90284
46.89	2.9262
46.9	2.90087
46.91	2.90481
46.92	2.916
46.93	2.86994
46.94	2.91896
46.95	2.8854
46.96	2.92652
46.97	2.92291
46.98	2.92159
46.99	2.89725
47	2.91567
47.01	2.9058
47.02	2.89988
47.03	2.91501
47.04	2.90251
47.05	2.89692
47.06	2.90481
47.07	2.91073
47.08	2.95646
47.09	2.89659
47.1	2.89133
47.11	2.87981
47.12	2.90119
47.13	2.91139
47.14	2.90054
47.15	2.89758
47.16	2.89363
47.17	2.89856
47.18	2.90218
47.19	2.916
47.2	2.90909
47.21	2.90416
47.22	2.92159
47.23	2.91698
47.24	2.9206
47.25	2.92521
47.26	2.90087
47.27	2.87817
47.28	2.93014
47.29	2.90481
47.3	2.91337
47.31	2.91698
47.32	2.89067
47.33	2.88639
47.34	2.92883
47.35	2.92093
47.36	2.92027
47.37	2.91468
47.38	2.90514
47.39	2.92817
47.4	2.89955
47.41	2.92027
47.42	2.91337
47.43	2.92126
47.44	2.89396
47.45	2.92587
47.46	2.88277
47.47	2.90679
47.48	2.91567
47.49	2.92258
47.5	2.90745
47.51	2.90383
47.52	2.90712
47.53	2.90218
47.54	2.88475
47.55	2.89856
47.56	2.88639
47.57	2.90679
47.58	2.91271
47.59	2.89988
47.6	2.92291
47.61	2.91008
47.62	2.916
47.63	2.89067
47.64	2.89198
47.65	2.88902
47.66	2.90942
47.67	2.89692
47.68	2.89363
47.69	2.88244
47.7	2.92159
47.71	2.93409
47.72	2.9081
47.73	2.91337
47.74	2.8854
47.75	2.86402
47.76	2.92093
47.77	2.91633
47.78	2.91929
47.79	2.87389
47.8	2.89626
47.81	2.89823
47.82	2.90613
47.83	2.92126
47.84	2.91304
47.85	2.9331
47.86	2.89692
47.87	2.87587
47.88	2.91139
47.89	2.916
47.9	2.94034
47.91	2.88475
47.92	2.91205
47.93	2.91534
47.94	2.90416
47.95	2.94363
47.96	2.91698
47.97	2.9058
47.98	2.92258
47.99	2.91698
48	2.92093
48.01	2.87554
48.02	2.91041
48.03	2.93442
48.04	2.87455
48.05	2.9081
48.06	2.89067
48.07	2.89494
48.08	2.91304
48.09	2.9081
48.1	2.91008
48.11	2.93014
48.12	2.89462
48.13	2.9081
48.14	2.92126
48.15	2.89034
48.16	2.88771
48.17	2.89429
48.18	2.90547
48.19	2.92981
48.2	2.8933
48.21	2.90054
48.22	2.91008
48.23	2.91666
48.24	2.90712
48.25	2.90679
48.26	2.88442
48.27	2.93738
48.28	2.93508
48.29	2.90613
48.3	2.9081
48.31	2.90909
48.32	2.90514
48.33	2.92324
48.34	2.92817
48.35	2.89034
48.36	2.891
48.37	2.89988
48.38	2.86665
48.39	2.88869
48.4	2.89823
48.41	2.90317
48.42	2.90679
48.43	2.90975
48.44	2.91337
48.45	2.86994
48.46	2.87948
48.47	2.8683
48.48	2.91468
48.49	2.94824
48.5	2.92488
48.51	2.90021
48.52	2.89133
48.53	2.8854
48.54	2.91764
48.55	2.90119
48.56	2.8729
48.57	2.89264
48.58	2.89396
48.59	2.92521
48.6	2.91764
48.61	2.89231
48.62	2.88442
48.63	2.88047
48.64	2.89758
48.65	2.90284
48.66	2.90712
48.67	2.89593
48.68	2.91995
48.69	2.90745
48.7	2.91106
48.71	2.91567
48.72	2.941
48.73	2.88968
48.74	2.89922
48.75	2.90909
48.76	2.94067
48.77	2.88902
48.78	2.8831
48.79	2.87126
48.8	2.88968
48.81	2.89133
48.82	2.92192
48.83	2.91764
48.84	2.88606
48.85	2.86073
48.86	2.92324
48.87	2.92718
48.88	2.92718
48.89	2.92291
48.9	2.89494
48.91	2.88738
48.92	2.92488
48.93	2.91402
48.94	2.9035
48.95	2.90284
48.96	2.91468
48.97	2.92587
48.98	2.91797
48.99	2.88804
49	2.90777
49.01	2.93935
49.02	2.92718
49.03	2.93014
49.04	2.90284
49.05	2.89889
49.06	2.89889
49.07	2.90712
49.08	2.91731
49.09	2.916
49.1	2.9035
49.11	2.89494
49.12	2.90481
49.13	2.92981
49.14	2.92587
49.15	2.91863
49.16	2.88343
49.17	2.89527
49.18	2.88902
49.19	2.90646
49.2	2.88705
49.21	2.90416
49.22	2.90909
49.23	2.89692
49.24	2.89823
49.25	2.88475
49.26	2.89396
49.27	2.89922
49.28	2.91073
49.29	2.90481
49.3	2.91073
49.31	2.93343
49.32	2.89001
49.33	2.89725
49.34	2.87915
49.35	2.88606
49.36	2.91962
49.37	2.9433
49.38	2.91567
49.39	2.89001
49.4	2.89527
49.41	2.92389
49.42	2.92817
49.43	2.92488
49.44	2.92652
49.45	2.92389
49.46	2.90777
49.47	2.91041
49.48	2.91995
49.49	2.90745
49.5	2.91764
49.51	2.89791
49.52	2.89297
49.53	2.88705
49.54	2.9137
49.55	2.89198
49.56	2.88573
49.57	2.90251
49.58	2.91106
49.59	2.91962
49.6	2.91534
49.61	2.90119
49.62	2.92159
49.63	2.93245
49.64	2.93179
49.65	2.90416
49.66	2.90021
49.67	2.89166
49.68	2.89922
49.69	2.90185
49.7	2.92883
49.71	2.90876
49.72	2.89198
49.73	2.96008
49.74	2.93146
49.75	2.91271
49.76	2.89297
49.77	2.92356
49.78	2.91666
49.79	2.9081
49.8	2.90087
49.81	2.90416
49.82	2.93146
49.83	2.92949
49.84	2.92027
49.85	2.88902
49.86	2.90712
49.87	2.90547
49.88	2.89264
49.89	2.9035
49.9	2.89791
49.91	2.89889
49.92	2.90777
49.93	2.89198
49.94	2.92817
49.95	2.91238
49.96	2.92751
49.97	2.89133
49.98	2.89988
49.99	2.91863
50	2.90547
