"BIO-KINE ASCII FILE"
"_COMMENT"	"MOS-500 Spectrometer"
"_COMMENT"	"Kinetics measurement"
"_COMMENT"	"Y Unit : Volt,  X Unit : s"
"_COMMENT"	"Excitation wavelength : 380 nm"
"_COMMENT"	"Fentes bandwidth =  1 nm"
"_COMMENT"	"HV= 1000V"
"_COMMENT"	"Timebase  1 =  .01 s   5001 pts"
"_SFM"	"SFM-400 /S  Advanced mode"
"_SFM"	"Ratio : S1: 2.5, S2: 0, S3: 0, S4: 1"
"_SFM"	"Content : S1: , S2: , S3: , S4:"
"_SFM"	"Concentration : S1: , S2: , S3: , S4:"
"_SFM"	"Total volume : 209 µl  Flow : 3.5 mL/s"
"_SFM"	"Acquisition start :  10 ms before stop"
"_SFM"	"cuve=FC-15, s1=10 ml , s2=10 ml , s3=10 ml , s4=1.9 ml"
"_UNITX"	"s"
"_UNITY"	"Volt"
"_DELTAX"	0
"_DATA"
1e-300	2.23538
0.01	3.14199
0.02	2.49855
0.03	2.21236
0.04	2.24032
0.05	2.2413
0.06	2.26565
0.07	2.23867
0.08	2.25545
0.09	2.24821
0.1	2.24098
0.11	2.26269
0.12	2.25907
0.13	2.24361
0.14	2.2719
0.15	2.23604
0.16	2.23736
0.17	2.25545
0.18	2.24196
0.19	2.24657
0.2	2.23242
0.21	2.25545
0.22	2.23637
0.23	2.28078
0.24	2.2719
0.25	2.24361
0.26	2.2538
0.27	2.24624
0.28	2.21334
0.29	2.24887
0.3	2.23374
0.31	2.24525
0.32	2.24394
0.33	2.23999
0.34	2.24196
0.35	2.24624
0.36	2.25611
0.37	2.25183
0.38	2.26729
0.39	2.24723
0.4	2.25709
0.41	2.24887
0.42	2.21959
0.43	2.24657
0.44	2.2344
0.45	2.25216
0.46	2.24854
0.47	2.24163
0.48	2.23242
0.49	2.2242
0.5	2.24262
0.51	2.22387
0.52	2.24229
0.53	2.24427
0.54	2.22025
0.55	2.23275
0.56	2.2413
0.57	2.27321
0.58	2.25084
0.59	2.26071
0.6	2.2538
0.61	2.24723
0.62	2.25611
0.63	2.2469
0.64	2.26565
0.65	2.22617
0.66	2.25907
0.67	2.28242
0.68	2.27091
0.69	2.26795
0.7	2.25677
0.71	2.24427
0.72	2.25709
0.73	2.24394
0.74	2.23933
0.75	2.21795
0.76	2.23407
0.77	2.24525
0.78	2.24723
0.79	2.24459
0.8	2.2765
0.81	2.25117
0.82	2.26861
0.83	2.23505
0.84	2.23966
0.85	2.25216
0.86	2.28078
0.87	2.29558
0.88	2.26696
0.89	2.24591
0.9	2.27552
0.91	2.2821
0.92	2.2413
0.93	2.24098
0.94	2.23834
0.95	2.25907
0.96	2.28045
0.97	2.23736
0.98	2.26959
0.99	2.24755
1	2.26236
1.01	2.27979
1.02	2.26466
1.03	2.25973
1.04	2.24262
1.05	2.22946
1.06	2.2719
1.07	2.25677
1.08	2.25808
1.09	2.27025
1.1	2.25183
1.11	2.25578
1.12	2.26236
1.13	2.27288
1.14	2.26006
1.15	2.27321
1.16	2.29262
1.17	2.26762
1.18	2.26367
1.19	2.2594
1.2	2.28374
1.21	2.25019
1.22	2.21861
1.23	2.23966
1.24	2.2288
1.25	2.24262
1.26	2.23505
1.27	2.25742
1.28	2.22453
1.29	2.25315
1.3	2.27223
1.31	2.25183
1.32	2.27157
1.33	2.24361
1.34	2.24854
1.35	2.24986
1.36	2.23111
1.37	2.289
1.38	2.28538
1.39	2.24953
1.4	2.28802
1.41	2.24427
1.42	2.24624
1.43	2.27256
1.44	2.26828
1.45	2.25084
1.46	2.21137
1.47	2.27979
1.48	2.27486
1.49	2.2492
1.5	2.26696
1.51	2.25644
1.52	2.24953
1.53	2.25677
1.54	2.2515
1.55	2.28538
1.56	2.26828
1.57	2.24986
1.58	2.23966
1.59	2.25512
1.6	2.28736
1.61	2.27617
1.62	2.27716
1.63	2.29131
1.64	2.25282
1.65	2.28144
1.66	2.26795
1.67	2.26006
1.68	2.25512
1.69	2.25512
1.7	2.23736
1.71	2.25907
1.72	2.29065
1.73	2.24394
1.74	2.27256
1.75	2.26927
1.76	2.26236
1.77	2.25808
1.78	2.23571
1.79	2.23769
1.8	2.27256
1.81	2.24986
1.82	2.27716
1.83	2.24427
1.84	2.27288
1.85	2.28867
1.86	2.24854
1.87	2.24525
1.88	2.24788
1.89	2.27749
1.9	2.26269
1.91	2.25117
1.92	2.26038
1.93	2.27058
1.94	2.26104
1.95	2.2538
1.96	2.23341
1.97	2.23176
1.98	2.24328
1.99	2.24821
2	2.26269
2.01	2.25183
2.02	2.25249
2.03	2.26631
2.04	2.25084
2.05	2.26269
2.06	2.28045
2.07	2.28835
2.08	2.25446
2.09	2.26104
2.1	2.26631
2.11	2.26696
2.12	2.26696
2.13	2.28637
2.14	2.2594
2.15	2.24624
2.16	2.23012
2.17	2.26433
2.18	2.26203
2.19	2.26071
2.2	2.2515
2.21	2.25315
2.22	2.25677
2.23	2.24887
2.24	2.24657
2.25	2.24591
2.26	2.28111
2.27	2.29098
2.28	2.26006
2.29	2.26367
2.3	2.26006
2.31	2.27749
2.32	2.22519
2.33	2.2742
2.34	2.28144
2.35	2.28078
2.36	2.24459
2.37	2.26038
2.38	2.26137
2.39	2.26203
2.4	2.27321
2.41	2.24196
2.42	2.24394
2.43	2.25512
2.44	2.24328
2.45	2.26104
2.46	2.23703
2.47	2.2617
2.48	2.25578
2.49	2.25249
2.5	2.2719
2.51	2.26696
2.52	2.27486
2.53	2.2742
2.54	2.27288
2.55	2.2492
2.56	2.25644
2.57	2.26729
2.58	2.2719
2.59	2.2992
2.6	2.29196
2.61	2.23407
2.62	2.22716
2.63	2.22584
2.64	2.23473
2.65	2.2969
2.66	2.28012
2.67	2.24657
2.68	2.27585
2.69	2.27979
2.7	2.25348
2.71	2.23407
2.72	2.25117
2.73	2.27256
2.74	2.239
2.75	2.2538
2.76	2.26894
2.77	2.27025
2.78	2.26302
2.79	2.24295
2.8	2.24657
2.81	2.26334
2.82	2.24459
2.83	2.24492
2.84	2.24163
2.85	2.24196
2.86	2.25216
2.87	2.28045
2.88	2.24394
2.89	2.26894
2.9	2.25183
2.91	2.25808
2.92	2.24361
2.93	2.25545
2.94	2.2117
2.95	2.25117
2.96	2.26334
2.97	2.26071
2.98	2.25315
2.99	2.23209
3	2.26598
3.01	2.25742
3.02	2.26269
3.03	2.27058
3.04	2.27256
3.05	2.27716
3.06	2.24032
3.07	2.2821
3.08	2.24558
3.09	2.25183
3.1	2.26762
3.11	2.28736
3.12	2.27913
3.13	2.26302
3.14	2.27716
3.15	2.27256
3.16	2.28111
3.17	2.2742
3.18	2.25578
3.19	2.2538
3.2	2.2742
3.21	2.26236
3.22	2.26729
3.23	2.28637
3.24	2.28933
3.25	2.264
3.26	2.24065
3.27	2.26038
3.28	2.27124
3.29	2.29361
3.3	2.24986
3.31	2.24854
3.32	2.25907
3.33	2.25052
3.34	2.26269
3.35	2.29756
3.36	2.3015
3.37	2.25512
3.38	2.25479
3.39	2.27519
3.4	2.26992
3.41	2.27025
3.42	2.26334
3.43	2.26269
3.44	2.26696
3.45	2.27815
3.46	2.26696
3.47	2.25874
3.48	2.26367
3.49	2.27486
3.5	2.27288
3.51	2.24723
3.52	2.25841
3.53	2.24657
3.54	2.24953
3.55	2.25216
3.56	2.2821
3.57	2.26795
3.58	2.23473
3.59	2.23834
3.6	2.25742
3.61	2.27288
3.62	2.28374
3.63	2.26334
3.64	2.26302
3.65	2.27025
3.66	2.24032
3.67	2.26038
3.68	2.26696
3.69	2.24624
3.7	2.24229
3.71	2.25775
3.72	2.28703
3.73	2.24887
3.74	2.24986
3.75	2.24394
3.76	2.24295
3.77	2.24854
3.78	2.29295
3.79	2.27453
3.8	2.26828
3.81	2.25808
3.82	2.27058
3.83	2.24887
3.84	2.25874
3.85	2.27058
3.86	2.24229
3.87	2.26137
3.88	2.24953
3.89	2.24328
3.9	2.28538
3.91	2.27223
3.92	2.25775
3.93	2.25348
3.94	2.24854
3.95	2.28177
3.96	2.24492
3.97	2.26302
3.98	2.29098
3.99	2.2719
4	2.24591
4.01	2.25052
4.02	2.25709
4.03	2.26663
4.04	2.24394
4.05	2.2492
4.06	2.26927
4.07	2.25775
4.08	2.24427
4.09	2.26203
4.1	2.25479
4.11	2.24821
4.12	2.26236
4.13	2.23538
4.14	2.25578
4.15	2.24854
4.16	2.27058
4.17	2.26104
4.18	2.24525
4.19	2.25249
4.2	2.22091
4.21	2.27881
4.22	2.27782
4.23	2.26104
4.24	2.26269
4.25	2.25479
4.26	2.23933
4.27	2.26598
4.28	2.2765
4.29	2.28538
4.3	2.24098
4.31	2.26729
4.32	2.28736
4.33	2.2469
4.34	2.24427
4.35	2.25512
4.36	2.26499
4.37	2.23078
4.38	2.24821
4.39	2.25578
4.4	2.25413
4.41	2.25019
4.42	2.26203
4.43	2.23703
4.44	2.24788
4.45	2.27058
4.46	2.26302
4.47	2.27223
4.48	2.26696
4.49	2.24624
4.5	2.26071
4.51	2.3015
4.52	2.2742
4.53	2.27848
4.54	2.26959
4.55	2.26236
4.56	2.25578
4.57	2.27354
4.58	2.27749
4.59	2.28999
4.6	2.27387
4.61	2.27716
4.62	2.25117
4.63	2.23637
4.64	2.24262
4.65	2.25874
4.66	2.26631
4.67	2.24262
4.68	2.25446
4.69	2.27157
4.7	2.26071
4.71	2.24328
4.72	2.24032
4.73	2.25216
4.74	2.25413
4.75	2.24394
4.76	2.24986
4.77	2.26433
4.78	2.27486
4.79	2.30907
4.8	2.29032
4.81	2.24788
4.82	2.26532
4.83	2.27716
4.84	2.2821
4.85	2.25084
4.86	2.28506
4.87	2.25973
4.88	2.24328
4.89	2.21926
4.9	2.25249
4.91	2.28045
4.92	2.27124
4.93	2.2492
4.94	2.2765
4.95	2.2515
4.96	2.26927
4.97	2.28604
4.98	2.23571
4.99	2.27223
5	2.27091
5.01	2.24854
5.02	2.24723
5.03	2.27025
5.04	2.25052
5.05	2.27519
5.06	2.26729
5.07	2.24723
5.08	2.24953
5.09	2.29098
5.1	2.26598
5.11	2.26334
5.12	2.27979
5.13	2.2742
5.14	2.28966
5.15	2.26302
5.16	2.25775
5.17	2.26861
5.18	2.2844
5.19	2.23999
5.2	2.2538
5.21	2.25611
5.22	2.24229
5.23	2.27256
5.24	2.28867
5.25	2.26927
5.26	2.24492
5.27	2.2594
5.28	2.28242
5.29	2.25578
5.3	2.24558
5.31	2.25742
5.32	2.25512
5.33	2.24098
5.34	2.23834
5.35	2.23933
5.36	2.25709
5.37	2.27354
5.38	2.26631
5.39	2.24657
5.4	2.27617
5.41	2.26992
5.42	2.26038
5.43	2.26631
5.44	2.25183
5.45	2.25611
5.46	2.26861
5.47	2.27881
5.48	2.28275
5.49	2.25052
5.5	2.26795
5.51	2.26302
5.52	2.28144
5.53	2.27617
5.54	2.28604
5.55	2.29164
5.56	2.30808
5.57	2.25611
5.58	2.21795
5.59	2.25413
5.6	2.26532
5.61	2.24723
5.62	2.25841
5.63	2.25611
5.64	2.24558
5.65	2.264
5.66	2.24821
5.67	2.28012
5.68	2.26334
5.69	2.25216
5.7	2.24492
5.71	2.26861
5.72	2.23769
5.73	2.25084
5.74	2.25973
5.75	2.25677
5.76	2.24328
5.77	2.26861
5.78	2.26861
5.79	2.23769
5.8	2.2617
5.81	2.25052
5.82	2.25611
5.83	2.24788
5.84	2.26269
5.85	2.25775
5.86	2.25578
5.87	2.28374
5.88	2.28999
5.89	2.28374
5.9	2.27256
5.91	2.26433
5.92	2.25742
5.93	2.25315
5.94	2.23834
5.95	2.25611
5.96	2.26631
5.97	2.2413
5.98	2.23769
5.99	2.27486
6	2.28407
6.01	2.26631
6.02	2.27091
6.03	2.24821
6.04	2.26861
6.05	2.24328
6.06	2.28703
6.07	2.28045
6.08	2.25282
6.09	2.26861
6.1	2.25775
6.11	2.26269
6.12	2.24986
6.13	2.264
6.14	2.24788
6.15	2.2617
6.16	2.25808
6.17	2.239
6.18	2.24032
6.19	2.27025
6.2	2.25183
6.21	2.24558
6.22	2.23769
6.23	2.25742
6.24	2.26071
6.25	2.29098
6.26	2.25578
6.27	2.26499
6.28	2.27683
6.29	2.25249
6.3	2.25611
6.31	2.24394
6.32	2.26236
6.33	2.25446
6.34	2.25677
6.35	2.26302
6.36	2.25479
6.37	2.27288
6.38	2.26038
6.39	2.24591
6.4	2.26565
6.41	2.26696
6.42	2.25973
6.43	2.25709
6.44	2.25578
6.45	2.27387
6.46	2.27552
6.47	2.25479
6.48	2.24854
6.49	2.23867
6.5	2.25512
6.51	2.27124
6.52	2.27157
6.53	2.27683
6.54	2.26104
6.55	2.2719
6.56	2.28275
6.57	2.25315
6.58	2.25841
6.59	2.25019
6.6	2.26236
6.61	2.26729
6.62	2.2469
6.63	2.25019
6.64	2.27782
6.65	2.25446
6.66	2.27288
6.67	2.26236
6.68	2.2719
6.69	2.28637
6.7	2.28012
6.71	2.25611
6.72	2.28407
6.73	2.27946
6.74	2.26663
6.75	2.26203
6.76	2.25183
6.77	2.23703
6.78	2.24163
6.79	2.24459
6.8	2.27946
6.81	2.26795
6.82	2.24032
6.83	2.2617
6.84	2.27946
6.85	2.24953
6.86	2.24591
6.87	2.25216
6.88	2.24394
6.89	2.23209
6.9	2.26334
6.91	2.26762
6.92	2.239
6.93	2.28473
6.94	2.27321
6.95	2.27848
6.96	2.27946
6.97	2.24788
6.98	2.25117
6.99	2.29131
7	2.23933
7.01	2.24328
7.02	2.26006
7.03	2.24427
7.04	2.26104
7.05	2.27782
7.06	2.27453
7.07	2.23538
7.08	2.26729
7.09	2.28078
7.1	2.27782
7.11	2.26532
7.12	2.24394
7.13	2.24624
7.14	2.26367
7.15	2.28703
7.16	2.25446
7.17	2.22979
7.18	2.25183
7.19	2.21861
7.2	2.26663
7.21	2.26959
7.22	2.2617
7.23	2.22025
7.24	2.24262
7.25	2.27387
7.26	2.25084
7.27	2.26762
7.28	2.24295
7.29	2.24459
7.3	2.25775
7.31	2.2594
7.32	2.2719
7.33	2.28275
7.34	2.25775
7.35	2.25479
7.36	2.28835
7.37	2.29624
7.38	2.23834
7.39	2.25479
7.4	2.27979
7.41	2.28078
7.42	2.25709
7.43	2.28506
7.44	2.28999
7.45	2.26532
7.46	2.26631
7.47	2.25282
7.48	2.23703
7.49	2.26367
7.5	2.25446
7.51	2.2594
7.52	2.26006
7.53	2.26631
7.54	2.26499
7.55	2.26334
7.56	2.24657
7.57	2.27782
7.58	2.28341
7.59	2.264
7.6	2.23834
7.61	2.26466
7.62	2.23538
7.63	2.26433
7.64	2.26433
7.65	2.28078
7.66	2.26696
7.67	2.2742
7.68	2.29065
7.69	2.26104
7.7	2.25052
7.71	2.27848
7.72	2.28506
7.73	2.25742
7.74	2.28769
7.75	2.2742
7.76	2.24953
7.77	2.26663
7.78	2.25709
7.79	2.27091
7.8	2.25183
7.81	2.26828
7.82	2.27782
7.83	2.29098
7.84	2.27979
7.85	2.27223
7.86	2.27124
7.87	2.29098
7.88	2.26795
7.89	2.27354
7.9	2.27453
7.91	2.27881
7.92	2.27946
7.93	2.27881
7.94	2.25282
7.95	2.25052
7.96	2.27058
7.97	2.2594
7.98	2.26038
7.99	2.27157
8	2.27913
8.01	2.25611
8.02	2.25841
8.03	2.27946
8.04	2.24065
8.05	2.23407
8.06	2.2469
8.07	2.25808
8.08	2.22716
8.09	2.25315
8.1	2.27815
8.11	2.26598
8.12	2.25052
8.13	2.27288
8.14	2.22716
8.15	2.21959
8.16	2.25677
8.17	2.26696
8.18	2.25183
8.19	2.2946
8.2	2.29032
8.21	2.25808
8.22	2.26104
8.23	2.27354
8.24	2.27881
8.25	2.26137
8.26	2.27881
8.27	2.24788
8.28	2.26729
8.29	2.26927
8.3	2.28604
8.31	2.25512
8.32	2.27617
8.33	2.26696
8.34	2.26466
8.35	2.25249
8.36	2.26992
8.37	2.28012
8.38	2.26006
8.39	2.27617
8.4	2.27617
8.41	2.28473
8.42	2.28111
8.43	2.26038
8.44	2.2594
8.45	2.2515
8.46	2.24624
8.47	2.26466
8.48	2.2719
8.49	2.25249
8.5	2.27848
8.51	2.25348
8.52	2.23407
8.53	2.23275
8.54	2.23966
8.55	2.27124
8.56	2.24657
8.57	2.25578
8.58	2.28473
8.59	2.24953
8.6	2.28571
8.61	2.26203
8.62	2.26104
8.63	2.27617
8.64	2.23999
8.65	2.22453
8.66	2.26203
8.67	2.27387
8.68	2.24459
8.69	2.23801
8.7	2.24953
8.71	2.26302
8.72	2.2413
8.73	2.2242
8.74	2.25183
8.75	2.24788
8.76	2.25249
8.77	2.25084
8.78	2.26269
8.79	2.25446
8.8	2.25742
8.81	2.25348
8.82	2.23769
8.83	2.24394
8.84	2.26006
8.85	2.25611
8.86	2.29558
8.87	2.26696
8.88	2.23999
8.89	2.24394
8.9	2.24953
8.91	2.23012
8.92	2.24558
8.93	2.26927
8.94	2.26927
8.95	2.25578
8.96	2.25282
8.97	2.24394
8.98	2.26334
8.99	2.25117
9	2.25775
9.01	2.25479
9.02	2.25545
9.03	2.26071
9.04	2.24262
9.05	2.26203
9.06	2.27617
9.07	2.27913
9.08	2.24262
9.09	2.25709
9.1	2.27585
9.11	2.26663
9.12	2.27617
9.13	2.21894
9.14	2.24459
9.15	2.26466
9.16	2.24525
9.17	2.21795
9.18	2.2413
9.19	2.26269
9.2	2.25446
9.21	2.24427
9.22	2.26104
9.23	2.26499
9.24	2.25611
9.25	2.26663
9.26	2.24163
9.27	2.22913
9.28	2.239
9.29	2.25907
9.3	2.28012
9.31	2.24459
9.32	2.26104
9.33	2.24657
9.34	2.24065
9.35	2.24065
9.36	2.26236
9.37	2.24755
9.38	2.25413
9.39	2.28538
9.4	2.26992
9.41	2.27979
9.42	2.26499
9.43	2.28045
9.44	2.26631
9.45	2.25019
9.46	2.25644
9.47	2.26367
9.48	2.24953
9.49	2.26203
9.5	2.27683
9.51	2.23999
9.52	2.27617
9.53	2.27585
9.54	2.24821
9.55	2.2492
9.56	2.26663
9.57	2.25973
9.58	2.22946
9.59	2.25644
9.6	2.239
9.61	2.25874
9.62	2.28275
9.63	2.26334
9.64	2.28045
9.65	2.25644
9.66	2.24492
9.67	2.26006
9.68	2.29131
9.69	2.28144
9.7	2.27058
9.71	2.25545
9.72	2.26762
9.73	2.27585
9.74	2.27124
9.75	2.25117
9.76	2.26927
9.77	2.25973
9.78	2.25282
9.79	2.27321
9.8	2.24755
9.81	2.25446
9.82	2.24591
9.83	2.25808
9.84	2.26499
9.85	2.26334
9.86	2.26828
9.87	2.2288
9.88	2.23867
9.89	2.25479
9.9	2.26729
9.91	2.25249
9.92	2.26894
9.93	2.26433
9.94	2.24525
9.95	2.24723
9.96	2.24328
9.97	2.24591
9.98	2.24558
9.99	2.25578
10	2.27782
10.01	2.23275
10.02	2.25216
10.03	2.26334
10.04	2.2367
10.05	2.24854
10.06	2.24328
10.07	2.28308
10.08	2.25973
10.09	2.24723
10.1	2.24591
10.11	2.23374
10.12	2.24558
10.13	2.24065
10.14	2.26631
10.15	2.25709
10.16	2.27124
10.17	2.24492
10.18	2.26006
10.19	2.26433
10.2	2.26729
10.21	2.26499
10.22	2.27223
10.23	2.24427
10.24	2.23045
10.25	2.24459
10.26	2.25742
10.27	2.25709
10.28	2.25611
10.29	2.27486
10.3	2.24295
10.31	2.24196
10.32	2.25479
10.33	2.26203
10.34	2.2946
10.35	2.26367
10.36	2.29229
10.37	2.24788
10.38	2.24525
10.39	2.23374
10.4	2.28111
10.41	2.27552
10.42	2.26203
10.43	2.24657
10.44	2.25709
10.45	2.264
10.46	2.24788
10.47	2.24295
10.48	2.26532
10.49	2.26663
10.5	2.23571
10.51	2.25907
10.52	2.25907
10.53	2.27519
10.54	2.2617
10.55	2.26565
10.56	2.24591
10.57	2.26137
10.58	2.26729
10.59	2.27124
10.6	2.22848
10.61	2.24229
10.62	2.24657
10.63	2.25117
10.64	2.26236
10.65	2.26598
10.66	2.26598
10.67	2.27091
10.68	2.26565
10.69	2.26236
10.7	2.26038
10.71	2.27124
10.72	2.25973
10.73	2.26927
10.74	2.24459
10.75	2.24986
10.76	2.26203
10.77	2.23736
10.78	2.22913
10.79	2.24361
10.8	2.26071
10.81	2.26236
10.82	2.27256
10.83	2.24492
10.84	2.24229
10.85	2.26565
10.86	2.25874
10.87	2.25413
10.88	2.24657
10.89	2.24755
10.9	2.26992
10.91	2.27913
10.92	2.27354
10.93	2.26828
10.94	2.26729
10.95	2.26433
10.96	2.23045
10.97	2.25052
10.98	2.24229
10.99	2.24525
11	2.25512
11.01	2.27058
11.02	2.23604
11.03	2.26203
11.04	2.27256
11.05	2.25479
11.06	2.26696
11.07	2.29196
11.08	2.28275
11.09	2.26828
11.1	2.26433
11.11	2.26565
11.12	2.26663
11.13	2.27256
11.14	2.25874
11.15	2.23242
11.16	2.25578
11.17	2.24821
11.18	2.2265
11.19	2.24394
11.2	2.25183
11.21	2.28571
11.22	2.239
11.23	2.25874
11.24	2.27486
11.25	2.25216
11.26	2.24854
11.27	2.27683
11.28	2.26532
11.29	2.26466
11.3	2.25282
11.31	2.25841
11.32	2.25249
11.33	2.25282
11.34	2.239
11.35	2.26367
11.36	2.26104
11.37	2.26598
11.38	2.25117
11.39	2.26071
11.4	2.25545
11.41	2.26433
11.42	2.26565
11.43	2.27223
11.44	2.26894
11.45	2.26565
11.46	2.24525
11.47	2.25874
11.48	2.25874
11.49	2.22815
11.5	2.2288
11.51	2.2367
11.52	2.24361
11.53	2.25644
11.54	2.25578
11.55	2.25084
11.56	2.26038
11.57	2.26367
11.58	2.28177
11.59	2.27585
11.6	2.24394
11.61	2.24098
11.62	2.2492
11.63	2.25216
11.64	2.24887
11.65	2.26071
11.66	2.28275
11.67	2.26269
11.68	2.26006
11.69	2.24525
11.7	2.26663
11.71	2.26959
11.72	2.25742
11.73	2.25545
11.74	2.27091
11.75	2.24328
11.76	2.27946
11.77	2.27025
11.78	2.24295
11.79	2.25446
11.8	2.26762
11.81	2.2617
11.82	2.26795
11.83	2.23604
11.84	2.26894
11.85	2.26565
11.86	2.26598
11.87	2.25413
11.88	2.23637
11.89	2.2765
11.9	2.25709
11.91	2.22551
11.92	2.29196
11.93	2.27519
11.94	2.27453
11.95	2.26565
11.96	2.27881
11.97	2.2821
11.98	2.24953
11.99	2.23275
12	2.23242
12.01	2.25117
12.02	2.25578
12.03	2.2469
12.04	2.26696
12.05	2.25282
12.06	2.23933
12.07	2.25446
12.08	2.26532
12.09	2.25841
12.1	2.22716
12.11	2.25052
12.12	2.2617
12.13	2.24328
12.14	2.26367
12.15	2.28374
12.16	2.26565
12.17	2.26367
12.18	2.24196
12.19	2.25709
12.2	2.24163
12.21	2.21203
12.22	2.26532
12.23	2.26532
12.24	2.25611
12.25	2.25019
12.26	2.27979
12.27	2.25479
12.28	2.2413
12.29	2.2413
12.3	2.23505
12.31	2.26203
12.32	2.26499
12.33	2.26795
12.34	2.25413
12.35	2.25413
12.36	2.24361
12.37	2.23308
12.38	2.23341
12.39	2.23111
12.4	2.2765
12.41	2.26598
12.42	2.26104
12.43	2.2594
12.44	2.26959
12.45	2.26137
12.46	2.27387
12.47	2.24624
12.48	2.27552
12.49	2.30019
12.5	2.26992
12.51	2.25315
12.52	2.24887
12.53	2.22683
12.54	2.25446
12.55	2.24328
12.56	2.24723
12.57	2.22222
12.58	2.24065
12.59	2.24459
12.6	2.25446
12.61	2.23538
12.62	2.23769
12.63	2.25874
12.64	2.2538
12.65	2.28111
12.66	2.24361
12.67	2.28538
12.68	2.26236
12.69	2.27223
12.7	2.23538
12.71	2.27552
12.72	2.25315
12.73	2.27453
12.74	2.25742
12.75	2.239
12.76	2.25479
12.77	2.25282
12.78	2.28177
12.79	2.2719
12.8	2.26071
12.81	2.24953
12.82	2.264
12.83	2.25677
12.84	2.2742
12.85	2.27288
12.86	2.2719
12.87	2.22387
12.88	2.26006
12.89	2.29196
12.9	2.25578
12.91	2.26367
12.92	2.27453
12.93	2.25117
12.94	2.24065
12.95	2.27157
12.96	2.25052
12.97	2.26663
12.98	2.26006
12.99	2.29624
13	2.26038
13.01	2.26828
13.02	2.27749
13.03	2.27716
13.04	2.28374
13.05	2.27585
13.06	2.25512
13.07	2.27716
13.08	2.30973
13.09	2.31861
13.1	2.27782
13.11	2.25874
13.12	2.27256
13.13	2.2742
13.14	2.25249
13.15	2.26334
13.16	2.26894
13.17	2.25611
13.18	2.26104
13.19	2.26302
13.2	2.24558
13.21	2.24328
13.22	2.26565
13.23	2.2413
13.24	2.27881
13.25	2.25282
13.26	2.23703
13.27	2.25677
13.28	2.24032
13.29	2.26861
13.3	2.26729
13.31	2.26071
13.32	2.26663
13.33	2.25907
13.34	2.25084
13.35	2.25775
13.36	2.27157
13.37	2.23341
13.38	2.2413
13.39	2.26071
13.4	2.2594
13.41	2.25709
13.42	2.27058
13.43	2.23473
13.44	2.23867
13.45	2.27157
13.46	2.2617
13.47	2.21269
13.48	2.23571
13.49	2.23999
13.5	2.2594
13.51	2.28637
13.52	2.27519
13.53	2.25315
13.54	2.25611
13.55	2.24427
13.56	2.26104
13.57	2.23144
13.58	2.25611
13.59	2.26302
13.6	2.2515
13.61	2.21729
13.62	2.24328
13.63	2.28341
13.64	2.26499
13.65	2.25677
13.66	2.28571
13.67	2.28374
13.68	2.25677
13.69	2.27354
13.7	2.27124
13.71	2.26631
13.72	2.23176
13.73	2.24065
13.74	2.25512
13.75	2.25611
13.76	2.25479
13.77	2.25874
13.78	2.25052
13.79	2.2765
13.8	2.25249
13.81	2.25052
13.82	2.2765
13.83	2.26927
13.84	2.24755
13.85	2.25545
13.86	2.25512
13.87	2.24229
13.88	2.26367
13.89	2.2742
13.9	2.26861
13.91	2.27288
13.92	2.26466
13.93	2.27387
13.94	2.24854
13.95	2.22782
13.96	2.25841
13.97	2.27453
13.98	2.24624
13.99	2.24427
14	2.24854
14.01	2.26565
14.02	2.24427
14.03	2.22617
14.04	2.26038
14.05	2.24328
14.06	2.26071
14.07	2.26894
14.08	2.25907
14.09	2.20709
14.1	2.23933
14.11	2.25677
14.12	2.2492
14.13	2.2344
14.14	2.23867
14.15	2.27025
14.16	2.27124
14.17	2.27683
14.18	2.2367
14.19	2.26795
14.2	2.25611
14.21	2.25512
14.22	2.28275
14.23	2.2515
14.24	2.25315
14.25	2.24394
14.26	2.23703
14.27	2.24788
14.28	2.28308
14.29	2.2594
14.3	2.24427
14.31	2.22848
14.32	2.27288
14.33	2.26565
14.34	2.25907
14.35	2.26466
14.36	2.26334
14.37	2.25611
14.38	2.2469
14.39	2.25282
14.4	2.25973
14.41	2.25216
14.42	2.26269
14.43	2.24723
14.44	2.27124
14.45	2.27223
14.46	2.23867
14.47	2.2288
14.48	2.27157
14.49	2.25183
14.5	2.24624
14.51	2.26762
14.52	2.27058
14.53	2.25644
14.54	2.26631
14.55	2.24788
14.56	2.25841
14.57	2.25315
14.58	2.25413
14.59	2.26236
14.6	2.27025
14.61	2.2492
14.62	2.24558
14.63	2.28341
14.64	2.27091
14.65	2.27815
14.66	2.264
14.67	2.25315
14.68	2.2515
14.69	2.26598
14.7	2.27091
14.71	2.24821
14.72	2.25019
14.73	2.24163
14.74	2.29492
14.75	2.264
14.76	2.24427
14.77	2.24459
14.78	2.23703
14.79	2.24229
14.8	2.2242
14.81	2.25644
14.82	2.2742
14.83	2.23769
14.84	2.26433
14.85	2.25249
14.86	2.23144
14.87	2.26038
14.88	2.2367
14.89	2.22815
14.9	2.24986
14.91	2.26959
14.92	2.28769
14.93	2.28374
14.94	2.28966
14.95	2.27453
14.96	2.27058
14.97	2.24986
14.98	2.23275
14.99	2.23341
15	2.26565
15.01	2.26532
15.02	2.25512
15.03	2.2617
15.04	2.26236
15.05	2.23966
15.06	2.26104
15.07	2.23999
15.08	2.25117
15.09	2.23505
15.1	2.27223
15.11	2.24723
15.12	2.2344
15.13	2.25644
15.14	2.26499
15.15	2.25413
15.16	2.25282
15.17	2.25644
15.18	2.264
15.19	2.2742
15.2	2.26203
15.21	2.27782
15.22	2.26565
15.23	2.25742
15.24	2.23209
15.25	2.28078
15.26	2.24755
15.27	2.24229
15.28	2.23801
15.29	2.27617
15.3	2.26959
15.31	2.239
15.32	2.27848
15.33	2.27387
15.34	2.25973
15.35	2.24788
15.36	2.26006
15.37	2.21926
15.38	2.22354
15.39	2.21828
15.4	2.25413
15.41	2.25578
15.42	2.26269
15.43	2.26236
15.44	2.28242
15.45	2.27716
15.46	2.27223
15.47	2.28703
15.48	2.23045
15.49	2.20578
15.5	2.2515
15.51	2.24821
15.52	2.27683
15.53	2.25545
15.54	2.26433
15.55	2.2469
15.56	2.26269
15.57	2.27321
15.58	2.25907
15.59	2.25841
15.6	2.23604
15.61	2.26762
15.62	2.25249
15.63	2.24986
15.64	2.24492
15.65	2.26696
15.66	2.24394
15.67	2.23144
15.68	2.24262
15.69	2.28407
15.7	2.22387
15.71	2.25052
15.72	2.26762
15.73	2.25742
15.74	2.25973
15.75	2.24196
15.76	2.26334
15.77	2.27354
15.78	2.24492
15.79	2.23703
15.8	2.25611
15.81	2.23473
15.82	2.26269
15.83	2.28736
15.84	2.28835
15.85	2.24591
15.86	2.26006
15.87	2.25874
15.88	2.26927
15.89	2.26006
15.9	2.24723
15.91	2.26565
15.92	2.24887
15.93	2.2515
15.94	2.27354
15.95	2.2538
15.96	2.26828
15.97	2.22519
15.98	2.26861
15.99	2.21663
16	2.23933
16.01	2.23736
16.02	2.25611
16.03	2.24163
16.04	2.24854
16.05	2.26532
16.06	2.26499
16.07	2.24032
16.08	2.24821
16.09	2.2617
16.1	2.28144
16.11	2.28242
16.12	2.22848
16.13	2.28177
16.14	2.25611
16.15	2.2538
16.16	2.25117
16.17	2.21301
16.18	2.24887
16.19	2.25611
16.2	2.26894
16.21	2.27354
16.22	2.27913
16.23	2.26795
16.24	2.27091
16.25	2.25973
16.26	2.239
16.27	2.26499
16.28	2.25512
16.29	2.23538
16.3	2.239
16.31	2.25512
16.32	2.2413
16.33	2.26894
16.34	2.264
16.35	2.27223
16.36	2.26565
16.37	2.24361
16.38	2.27256
16.39	2.2821
16.4	2.26762
16.41	2.25512
16.42	2.25117
16.43	2.27256
16.44	2.26269
16.45	2.2594
16.46	2.24953
16.47	2.26532
16.48	2.28177
16.49	2.26236
16.5	2.26302
16.51	2.22255
16.52	2.26631
16.53	2.2344
16.54	2.27749
16.55	2.22124
16.56	2.26236
16.57	2.27848
16.58	2.26302
16.59	2.27453
16.6	2.27749
16.61	2.28571
16.62	2.26006
16.63	2.24953
16.64	2.23801
16.65	2.26696
16.66	2.23769
16.67	2.25512
16.68	2.23703
16.69	2.25315
16.7	2.25019
16.71	2.2765
16.72	2.24953
16.73	2.25216
16.74	2.27387
16.75	2.239
16.76	2.26762
16.77	2.2538
16.78	2.24394
16.79	2.23209
16.8	2.26006
16.81	2.26894
16.82	2.27519
16.83	2.26959
16.84	2.24657
16.85	2.28473
16.86	2.25282
16.87	2.25677
16.88	2.2515
16.89	2.24657
16.9	2.25677
16.91	2.24163
16.92	2.25216
16.93	2.24755
16.94	2.25512
16.95	2.25084
16.96	2.26894
16.97	2.27585
16.98	2.25841
16.99	2.25019
17	2.26334
17.01	2.28012
17.02	2.26598
17.03	2.24591
17.04	2.24459
17.05	2.23538
17.06	2.28012
17.07	2.25907
17.08	2.25117
17.09	2.26006
17.1	2.23736
17.11	2.25117
17.12	2.26038
17.13	2.23966
17.14	2.29361
17.15	2.24295
17.16	2.25413
17.17	2.25644
17.18	2.23867
17.19	2.28506
17.2	2.26992
17.21	2.26565
17.22	2.25446
17.23	2.25841
17.24	2.25611
17.25	2.2617
17.26	2.26532
17.27	2.27979
17.28	2.25973
17.29	2.26894
17.3	2.24558
17.31	2.24986
17.32	2.24196
17.33	2.26762
17.34	2.25315
17.35	2.2492
17.36	2.27058
17.37	2.26532
17.38	2.26302
17.39	2.23999
17.4	2.23736
17.41	2.2594
17.42	2.27387
17.43	2.26466
17.44	2.26236
17.45	2.2594
17.46	2.2821
17.47	2.2719
17.48	2.2867
17.49	2.2617
17.5	2.26532
17.51	2.26598
17.52	2.23834
17.53	2.26696
17.54	2.25775
17.55	2.25611
17.56	2.25512
17.57	2.24657
17.58	2.26137
17.59	2.28933
17.6	2.2617
17.61	2.27124
17.62	2.25973
17.63	2.27486
17.64	2.2765
17.65	2.2617
17.66	2.24723
17.67	2.2617
17.68	2.27288
17.69	2.26367
17.7	2.24492
17.71	2.24854
17.72	2.24032
17.73	2.25249
17.74	2.26795
17.75	2.24854
17.76	2.23933
17.77	2.27782
17.78	2.25479
17.79	2.24558
17.8	2.23867
17.81	2.25249
17.82	2.24591
17.83	2.23374
17.84	2.26631
17.85	2.23209
17.86	2.23275
17.87	2.25249
17.88	2.26071
17.89	2.23834
17.9	2.2413
17.91	2.239
17.92	2.23045
17.93	2.23538
17.94	2.24755
17.95	2.25282
17.96	2.25216
17.97	2.24854
17.98	2.25545
17.99	2.25084
18	2.24098
18.01	2.27025
18.02	2.24328
18.03	2.22749
18.04	2.25512
18.05	2.23505
18.06	2.24196
18.07	2.24624
18.08	2.25742
18.09	2.27288
18.1	2.25512
18.11	2.28242
18.12	2.25677
18.13	2.26927
18.14	2.24821
18.15	2.25052
18.16	2.23473
18.17	2.26203
18.18	2.24098
18.19	2.26696
18.2	2.24328
18.21	2.23604
18.22	2.21597
18.23	2.20545
18.24	2.23571
18.25	2.21861
18.26	2.25611
18.27	2.23999
18.28	2.27913
18.29	2.25874
18.3	2.25742
18.31	2.26762
18.32	2.26532
18.33	2.23999
18.34	2.27617
18.35	2.26302
18.36	2.26927
18.37	2.26466
18.38	2.2617
18.39	2.26236
18.4	2.24591
18.41	2.24328
18.42	2.2515
18.43	2.24723
18.44	2.26038
18.45	2.25479
18.46	2.26236
18.47	2.27354
18.48	2.27223
18.49	2.24295
18.5	2.26433
18.51	2.2492
18.52	2.25479
18.53	2.25874
18.54	2.26927
18.55	2.27683
18.56	2.25413
18.57	2.25282
18.58	2.26466
18.59	2.24459
18.6	2.25512
18.61	2.24657
18.62	2.26499
18.63	2.25644
18.64	2.26302
18.65	2.27552
18.66	2.26367
18.67	2.25808
18.68	2.27585
18.69	2.24887
18.7	2.25446
18.71	2.25282
18.72	2.2515
18.73	2.23933
18.74	2.24361
18.75	2.24788
18.76	2.23374
18.77	2.26071
18.78	2.29525
18.79	2.27321
18.8	2.26696
18.81	2.26203
18.82	2.23473
18.83	2.24065
18.84	2.23308
18.85	2.25841
18.86	2.26302
18.87	2.26598
18.88	2.24196
18.89	2.22782
18.9	2.2413
18.91	2.26038
18.92	2.30578
18.93	2.27321
18.94	2.24525
18.95	2.25413
18.96	2.25709
18.97	2.25479
18.98	2.25019
18.99	2.25841
19	2.25973
19.01	2.2515
19.02	2.2413
19.03	2.264
19.04	2.25446
19.05	2.26302
19.06	2.26367
19.07	2.25117
19.08	2.26598
19.09	2.24328
19.1	2.22453
19.11	2.2594
19.12	2.26565
19.13	2.26762
19.14	2.22124
19.15	2.2469
19.16	2.24788
19.17	2.26598
19.18	2.2742
19.19	2.26367
19.2	2.27321
19.21	2.25742
19.22	2.24427
19.23	2.21696
19.24	2.25545
19.25	2.24492
19.26	2.25216
19.27	2.25512
19.28	2.25413
19.29	2.24394
19.3	2.25052
19.31	2.26203
19.32	2.26992
19.33	2.25677
19.34	2.26696
19.35	2.24394
19.36	2.23538
19.37	2.22979
19.38	2.24394
19.39	2.23769
19.4	2.22946
19.41	2.26006
19.42	2.25019
19.43	2.23801
19.44	2.25775
19.45	2.25282
19.46	2.26696
19.47	2.26137
19.48	2.25578
19.49	2.24887
19.5	2.23933
19.51	2.22815
19.52	2.26598
19.53	2.2617
19.54	2.25644
19.55	2.25907
19.56	2.24032
19.57	2.22979
19.58	2.2492
19.59	2.22091
19.6	2.239
19.61	2.27223
19.62	2.24887
19.63	2.24723
19.64	2.26104
19.65	2.27223
19.66	2.22025
19.67	2.2367
19.68	2.24492
19.69	2.2492
19.7	2.25742
19.71	2.24328
19.72	2.28604
19.73	2.24788
19.74	2.26828
19.75	2.25249
19.76	2.26006
19.77	2.25775
19.78	2.27946
19.79	2.26861
19.8	2.24854
19.81	2.23045
19.82	2.23144
19.83	2.26861
19.84	2.26631
19.85	2.26137
19.86	2.23571
19.87	2.2594
19.88	2.26203
19.89	2.22716
19.9	2.23538
19.91	2.26104
19.92	2.27913
19.93	2.23538
19.94	2.24624
19.95	2.20578
19.96	2.22519
19.97	2.25084
19.98	2.28867
19.99	2.27585
20	2.25973
20.01	2.24459
20.02	2.23111
20.03	2.24262
20.04	2.25183
20.05	2.25282
20.06	2.24427
20.07	2.21433
20.08	2.26466
20.09	2.29361
20.1	2.27453
20.11	2.26894
20.12	2.24328
20.13	2.25117
20.14	2.29427
20.15	2.314
20.16	2.25348
20.17	2.28308
20.18	2.27124
20.19	2.23637
20.2	2.25282
20.21	2.26663
20.22	2.22519
20.23	2.25578
20.24	2.23834
20.25	2.25052
20.26	2.25644
20.27	2.26598
20.28	2.27223
20.29	2.2413
20.3	2.26236
20.31	2.22288
20.32	2.24163
20.33	2.26038
20.34	2.29065
20.35	2.26631
20.36	2.24591
20.37	2.25611
20.38	2.26269
20.39	2.26334
20.4	2.24953
20.41	2.25874
20.42	2.25578
20.43	2.25775
20.44	2.25907
20.45	2.24887
20.46	2.2594
20.47	2.25052
20.48	2.27552
20.49	2.27617
20.5	2.264
20.51	2.24525
20.52	2.24788
20.53	2.22255
20.54	2.26598
20.55	2.27716
20.56	2.25709
20.57	2.26696
20.58	2.27288
20.59	2.27552
20.6	2.24525
20.61	2.22584
20.62	2.24394
20.63	2.26927
20.64	2.24427
20.65	2.24558
20.66	2.25709
20.67	2.23505
20.68	2.27058
20.69	2.26631
20.7	2.24525
20.71	2.23769
20.72	2.25052
20.73	2.2515
20.74	2.22387
20.75	2.22946
20.76	2.25084
20.77	2.26236
20.78	2.2469
20.79	2.26104
20.8	2.25644
20.81	2.22716
20.82	2.23604
20.83	2.2594
20.84	2.26466
20.85	2.25117
20.86	2.2469
20.87	2.24163
20.88	2.26433
20.89	2.25709
20.9	2.27387
20.91	2.26038
20.92	2.27256
20.93	2.25874
20.94	2.24163
20.95	2.24986
20.96	2.23933
20.97	2.24459
20.98	2.28835
20.99	2.25446
21	2.25446
21.01	2.23834
21.02	2.23341
21.03	2.23078
21.04	2.26499
21.05	2.26959
21.06	2.2765
21.07	2.27157
21.08	2.24229
21.09	2.23801
21.1	2.23736
21.11	2.23176
21.12	2.26302
21.13	2.26663
21.14	2.26433
21.15	2.26894
21.16	2.23703
21.17	2.24986
21.18	2.28637
21.19	2.2617
21.2	2.24427
21.21	2.24361
21.22	2.22913
21.23	2.24262
21.24	2.24788
21.25	2.25973
21.26	2.26762
21.27	2.23111
21.28	2.25545
21.29	2.26269
21.3	2.24854
21.31	2.23078
21.32	2.23801
21.33	2.27848
21.34	2.24361
21.35	2.25578
21.36	2.24821
21.37	2.26104
21.38	2.27881
21.39	2.26499
21.4	2.23801
21.41	2.23012
21.42	2.25644
21.43	2.25841
21.44	2.25052
21.45	2.2594
21.46	2.23111
21.47	2.26532
21.48	2.23801
21.49	2.2515
21.5	2.28045
21.51	2.26499
21.52	2.25775
21.53	2.30216
21.54	2.26466
21.55	2.23703
21.56	2.25677
21.57	2.24953
21.58	2.25052
21.59	2.24657
21.6	2.27617
21.61	2.23571
21.62	2.22617
21.63	2.27519
21.64	2.26334
21.65	2.25446
21.66	2.23736
21.67	2.24196
21.68	2.24525
21.69	2.2265
21.7	2.24098
21.71	2.25249
21.72	2.24459
21.73	2.24492
21.74	2.24361
21.75	2.25019
21.76	2.24525
21.77	2.26828
21.78	2.30282
21.79	2.26729
21.8	2.26499
21.81	2.25578
21.82	2.25019
21.83	2.25084
21.84	2.27585
21.85	2.28341
21.86	2.24229
21.87	2.22321
21.88	2.26499
21.89	2.2742
21.9	2.2538
21.91	2.2219
21.92	2.22551
21.93	2.27288
21.94	2.28538
21.95	2.26433
21.96	2.23308
21.97	2.24394
21.98	2.25578
21.99	2.25973
22	2.25117
22.01	2.27157
22.02	2.24394
22.03	2.25907
22.04	2.25775
22.05	2.24492
22.06	2.24755
22.07	2.25578
22.08	2.22255
22.09	2.23176
22.1	2.19986
22.11	2.2594
22.12	2.29229
22.13	2.24624
22.14	2.25677
22.15	2.26269
22.16	2.25084
22.17	2.27519
22.18	2.27058
22.19	2.24723
22.2	2.25808
22.21	2.23538
22.22	2.26302
22.23	2.2765
22.24	2.24558
22.25	2.25019
22.26	2.264
22.27	2.26203
22.28	2.2413
22.29	2.26696
22.3	2.25446
22.31	2.25742
22.32	2.239
22.33	2.25413
22.34	2.24821
22.35	2.25249
22.36	2.28867
22.37	2.24887
22.38	2.22222
22.39	2.26466
22.4	2.25709
22.41	2.24624
22.42	2.26071
22.43	2.24788
22.44	2.28012
22.45	2.26302
22.46	2.29065
22.47	2.24887
22.48	2.24394
22.49	2.25019
22.5	2.24295
22.51	2.23407
22.52	2.25216
22.53	2.24558
22.54	2.24295
22.55	2.25709
22.56	2.24854
22.57	2.27354
22.58	2.28012
22.59	2.27025
22.6	2.28012
22.61	2.24755
22.62	2.25117
22.63	2.2469
22.64	2.27223
22.65	2.28769
22.66	2.25578
22.67	2.24295
22.68	2.24854
22.69	2.24821
22.7	2.25282
22.71	2.2492
22.72	2.26762
22.73	2.26269
22.74	2.24723
22.75	2.24887
22.76	2.24854
22.77	2.24591
22.78	2.24394
22.79	2.25907
22.8	2.2492
22.81	2.26959
22.82	2.264
22.83	2.28078
22.84	2.24525
22.85	2.24492
22.86	2.23966
22.87	2.24032
22.88	2.26631
22.89	2.25117
22.9	2.27585
22.91	2.26795
22.92	2.26894
22.93	2.23736
22.94	2.27519
22.95	2.26433
22.96	2.2821
22.97	2.2844
22.98	2.26367
22.99	2.23538
23	2.2515
23.01	2.22354
23.02	2.24459
23.03	2.25315
23.04	2.28637
23.05	2.26828
23.06	2.25874
23.07	2.24098
23.08	2.26795
23.09	2.23473
23.1	2.21499
23.11	2.26071
23.12	2.30348
23.13	2.26795
23.14	2.25907
23.15	2.24953
23.16	2.23966
23.17	2.25644
23.18	2.24558
23.19	2.24723
23.2	2.27815
23.21	2.24854
23.22	2.24459
23.23	2.27453
23.24	2.22091
23.25	2.24558
23.26	2.24788
23.27	2.27552
23.28	2.26861
23.29	2.26236
23.3	2.27025
23.31	2.27848
23.32	2.27288
23.33	2.24821
23.34	2.2469
23.35	2.2594
23.36	2.24295
23.37	2.27223
23.38	2.27946
23.39	2.27683
23.4	2.2515
23.41	2.2515
23.42	2.24723
23.43	2.26598
23.44	2.28111
23.45	2.25446
23.46	2.25084
23.47	2.27387
23.48	2.2538
23.49	2.23867
23.5	2.26269
23.51	2.28078
23.52	2.26762
23.53	2.24492
23.54	2.2413
23.55	2.27124
23.56	2.29065
23.57	2.24229
23.58	2.23999
23.59	2.28407
23.6	2.26795
23.61	2.20841
23.62	2.25216
23.63	2.27453
23.64	2.25973
23.65	2.23933
23.66	2.24953
23.67	2.26367
23.68	2.23505
23.69	2.22782
23.7	2.23538
23.71	2.23769
23.72	2.2492
23.73	2.26598
23.74	2.26137
23.75	2.26598
23.76	2.26631
23.77	2.26269
23.78	2.24986
23.79	2.25479
23.8	2.24854
23.81	2.25479
23.82	2.26598
23.83	2.26499
23.84	2.24887
23.85	2.24427
23.86	2.23703
23.87	2.25907
23.88	2.22683
23.89	2.23341
23.9	2.24624
23.91	2.25808
23.92	2.24262
23.93	2.22782
23.94	2.23505
23.95	2.26367
23.96	2.25216
23.97	2.26104
23.98	2.25578
23.99	2.27683
24	2.26006
24.01	2.22782
24.02	2.23538
24.03	2.27058
24.04	2.25775
24.05	2.24098
24.06	2.24788
24.07	2.26038
24.08	2.24525
24.09	2.22617
24.1	2.24492
24.11	2.25644
24.12	2.26367
24.13	2.2867
24.14	2.27782
24.15	2.25019
24.16	2.25644
24.17	2.24558
24.18	2.22157
24.19	2.27124
24.2	2.23933
24.21	2.21729
24.22	2.2288
24.23	2.25084
24.24	2.2469
24.25	2.23144
24.26	2.2492
24.27	2.2163
24.28	2.23078
24.29	2.26071
24.3	2.24986
24.31	2.23604
24.32	2.22058
24.33	2.24525
24.34	2.27256
24.35	2.25249
24.36	2.27124
24.37	2.2594
24.38	2.25117
24.39	2.24755
24.4	2.26729
24.41	2.2594
24.42	2.23736
24.43	2.22913
24.44	2.26499
24.45	2.26071
24.46	2.25019
24.47	2.25216
24.48	2.239
24.49	2.25973
24.5	2.27617
24.51	2.27979
24.52	2.25644
24.53	2.25249
24.54	2.25315
24.55	2.25315
24.56	2.24427
24.57	2.22288
24.58	2.27387
24.59	2.27321
24.6	2.27058
24.61	2.26334
24.62	2.26466
24.63	2.26565
24.64	2.23867
24.65	2.21038
24.66	2.22913
24.67	2.25709
24.68	2.25479
24.69	2.26104
24.7	2.2492
24.71	2.25282
24.72	2.25479
24.73	2.23341
24.74	2.24295
24.75	2.27782
24.76	2.27519
24.77	2.24196
24.78	2.24821
24.79	2.27157
24.8	2.26466
24.81	2.25117
24.82	2.25742
24.83	2.26203
24.84	2.24361
24.85	2.27091
24.86	2.24492
24.87	2.26828
24.88	2.29854
24.89	2.2617
24.9	2.2367
24.91	2.2344
24.92	2.2617
24.93	2.26104
24.94	2.26992
24.95	2.27453
24.96	2.28867
24.97	2.27848
24.98	2.27683
24.99	2.25413
25	2.24295
25.01	2.24755
25.02	2.23999
25.03	2.2367
25.04	2.22124
25.05	2.24492
25.06	2.24459
25.07	2.26992
25.08	2.26894
25.09	2.24295
25.1	2.23769
25.11	2.26663
25.12	2.24821
25.13	2.28407
25.14	2.25611
25.15	2.24427
25.16	2.26663
25.17	2.26992
25.18	2.25709
25.19	2.23242
25.2	2.24163
25.21	2.24196
25.22	2.24953
25.23	2.2617
25.24	2.2719
25.25	2.2538
25.26	2.23966
25.27	2.25479
25.28	2.26696
25.29	2.26631
25.3	2.26302
25.31	2.26828
25.32	2.25808
25.33	2.23801
25.34	2.25019
25.35	2.25052
25.36	2.25446
25.37	2.23571
25.38	2.26203
25.39	2.23176
25.4	2.27058
25.41	2.22486
25.42	2.22683
25.43	2.23538
25.44	2.23604
25.45	2.25545
25.46	2.24887
25.47	2.25019
25.48	2.22716
25.49	2.27288
25.5	2.27782
25.51	2.28275
25.52	2.22288
25.53	2.2344
25.54	2.22848
25.55	2.25216
25.56	2.23341
25.57	2.24591
25.58	2.27881
25.59	2.25907
25.6	2.22749
25.61	2.26894
25.62	2.22584
25.63	2.23571
25.64	2.27486
25.65	2.26663
25.66	2.26203
25.67	2.24427
25.68	2.25545
25.69	2.27354
25.7	2.26532
25.71	2.26696
25.72	2.2742
25.73	2.25545
25.74	2.21894
25.75	2.23078
25.76	2.24427
25.77	2.26071
25.78	2.26696
25.79	2.28078
25.8	2.27025
25.81	2.21466
25.82	2.24459
25.83	2.24295
25.84	2.27486
25.85	2.26762
25.86	2.24953
25.87	2.26104
25.88	2.25578
25.89	2.26038
25.9	2.23604
25.91	2.23933
25.92	2.2219
25.93	2.21236
25.94	2.25019
25.95	2.25907
25.96	2.25315
25.97	2.23045
25.98	2.24394
25.99	2.25019
26	2.2515
26.01	2.26137
26.02	2.24229
26.03	2.22519
26.04	2.22288
26.05	2.25907
26.06	2.24723
26.07	2.25578
26.08	2.24295
26.09	2.24953
26.1	2.24361
26.11	2.2242
26.12	2.24525
26.13	2.26729
26.14	2.27091
26.15	2.26433
26.16	2.25117
26.17	2.26532
26.18	2.26992
26.19	2.25446
26.2	2.2413
26.21	2.25874
26.22	2.24098
26.23	2.24657
26.24	2.26433
26.25	2.26104
26.26	2.27486
26.27	2.26104
26.28	2.26006
26.29	2.26696
26.3	2.2538
26.31	2.22946
26.32	2.23933
26.33	2.27288
26.34	2.23834
26.35	2.24163
26.36	2.24427
26.37	2.26071
26.38	2.24032
26.39	2.25315
26.4	2.24065
26.41	2.27617
26.42	2.24394
26.43	2.24032
26.44	2.27288
26.45	2.27782
26.46	2.26532
26.47	2.26137
26.48	2.25512
26.49	2.25512
26.5	2.25677
26.51	2.23242
26.52	2.24262
26.53	2.24558
26.54	2.24394
26.55	2.2719
26.56	2.23275
26.57	2.24525
26.58	2.23045
26.59	2.24624
26.6	2.24723
26.61	2.27782
26.62	2.26137
26.63	2.26367
26.64	2.25644
26.65	2.26006
26.66	2.24723
26.67	2.25644
26.68	2.24394
26.69	2.24986
26.7	2.25709
26.71	2.24788
26.72	2.25348
26.73	2.24427
26.74	2.26959
26.75	2.26729
26.76	2.24229
26.77	2.27223
26.78	2.24262
26.79	2.21992
26.8	2.22222
26.81	2.24558
26.82	2.2617
26.83	2.24723
26.84	2.26795
26.85	2.26104
26.86	2.22519
26.87	2.22848
26.88	2.21729
26.89	2.23834
26.9	2.24361
26.91	2.26071
26.92	2.24427
26.93	2.2413
26.94	2.25611
26.95	2.24657
26.96	2.25545
26.97	2.24788
26.98	2.25907
26.99	2.2469
27	2.24525
27.01	2.25709
27.02	2.26762
27.03	2.27519
27.04	2.25677
27.05	2.26696
27.06	2.26269
27.07	2.26828
27.08	2.2515
27.09	2.23604
27.1	2.26367
27.11	2.22683
27.12	2.23341
27.13	2.24624
27.14	2.28538
27.15	2.27749
27.16	2.26762
27.17	2.26006
27.18	2.24986
27.19	2.24394
27.2	2.22486
27.21	2.27585
27.22	2.24854
27.23	2.21992
27.24	2.24986
27.25	2.25611
27.26	2.26038
27.27	2.26631
27.28	2.27913
27.29	2.2469
27.3	2.24065
27.31	2.23801
27.32	2.2367
27.33	2.21137
27.34	2.26006
27.35	2.24295
27.36	2.21992
27.37	2.24887
27.38	2.25216
27.39	2.26367
27.4	2.26828
27.41	2.2367
27.42	2.24624
27.43	2.27354
27.44	2.23275
27.45	2.24229
27.46	2.25611
27.47	2.26927
27.48	2.26466
27.49	2.23078
27.5	2.2538
27.51	2.25742
27.52	2.26038
27.53	2.2469
27.54	2.24229
27.55	2.30315
27.56	2.28867
27.57	2.26071
27.58	2.26006
27.59	2.24657
27.6	2.26959
27.61	2.24821
27.62	2.24624
27.63	2.23538
27.64	2.26631
27.65	2.26071
27.66	2.264
27.67	2.25348
27.68	2.26861
27.69	2.29854
27.7	2.25677
27.71	2.25709
27.72	2.26565
27.73	2.22749
27.74	2.22979
27.75	2.27354
27.76	2.23176
27.77	2.23176
27.78	2.25282
27.79	2.24887
27.8	2.25084
27.81	2.27782
27.82	2.28177
27.83	2.23571
27.84	2.21499
27.85	2.22617
27.86	2.23275
27.87	2.24427
27.88	2.25084
27.89	2.2265
27.9	2.22486
27.91	2.24032
27.92	2.25052
27.93	2.24788
27.94	2.25677
27.95	2.25611
27.96	2.26828
27.97	2.26302
27.98	2.26006
27.99	2.25183
28	2.25775
28.01	2.25315
28.02	2.25841
28.03	2.25084
28.04	2.25446
28.05	2.2742
28.06	2.24492
28.07	2.24098
28.08	2.26203
28.09	2.24394
28.1	2.21696
28.11	2.27519
28.12	2.24854
28.13	2.23111
28.14	2.25183
28.15	2.25183
28.16	2.24032
28.17	2.25578
28.18	2.26236
28.19	2.2617
28.2	2.26269
28.21	2.23275
28.22	2.24427
28.23	2.23341
28.24	2.24788
28.25	2.22913
28.26	2.20742
28.27	2.18933
28.28	2.26762
28.29	2.26894
28.3	2.25117
28.31	2.22321
28.32	2.23242
28.33	2.22848
28.34	2.23407
28.35	2.26334
28.36	2.26729
28.37	2.24525
28.38	2.22584
28.39	2.23604
28.4	2.24591
28.41	2.2367
28.42	2.25249
28.43	2.23242
28.44	2.21959
28.45	2.25216
28.46	2.25973
28.47	2.25808
28.48	2.22551
28.49	2.26334
28.5	2.28506
28.51	2.2594
28.52	2.27288
28.53	2.24953
28.54	2.264
28.55	2.24065
28.56	2.25874
28.57	2.26696
28.58	2.23834
28.59	2.27124
28.6	2.25709
28.61	2.24854
28.62	2.23933
28.63	2.27058
28.64	2.2719
28.65	2.264
28.66	2.25545
28.67	2.26663
28.68	2.2515
28.69	2.24525
28.7	2.21696
28.71	2.24328
28.72	2.24459
28.73	2.25216
28.74	2.23769
28.75	2.27124
28.76	2.23999
28.77	2.24525
28.78	2.28736
28.79	2.28999
28.8	2.28111
28.81	2.27519
28.82	2.2469
28.83	2.2538
28.84	2.24328
28.85	2.25117
28.86	2.23374
28.87	2.23999
28.88	2.25117
28.89	2.23604
28.9	2.23538
28.91	2.24755
28.92	2.22946
28.93	2.25512
28.94	2.22848
28.95	2.25808
28.96	2.24295
28.97	2.22913
28.98	2.24723
28.99	2.26137
29	2.26038
29.01	2.25282
29.02	2.24953
29.03	2.22946
29.04	2.23769
29.05	2.25249
29.06	2.23078
29.07	2.23308
29.08	2.23242
29.09	2.26795
29.1	2.24065
29.11	2.23769
29.12	2.23637
29.13	2.26104
29.14	2.25907
29.15	2.26532
29.16	2.24492
29.17	2.22255
29.18	2.21104
29.19	2.23078
29.2	2.2538
29.21	2.27124
29.22	2.24887
29.23	2.26598
29.24	2.25117
29.25	2.23176
29.26	2.26598
29.27	2.22749
29.28	2.23473
29.29	2.24492
29.3	2.24755
29.31	2.2492
29.32	2.23703
29.33	2.26729
29.34	2.27617
29.35	2.2492
29.36	2.25841
29.37	2.25315
29.38	2.27157
29.39	2.29361
29.4	2.25348
29.41	2.2617
29.42	2.24525
29.43	2.21894
29.44	2.2469
29.45	2.26006
29.46	2.27585
29.47	2.26696
29.48	2.25348
29.49	2.22683
29.5	2.22354
29.51	2.2821
29.52	2.2765
29.53	2.26433
29.54	2.26334
29.55	2.26334
29.56	2.2617
29.57	2.24098
29.58	2.24657
29.59	2.25413
29.6	2.25249
29.61	2.27058
29.62	2.29032
29.63	2.22255
29.64	2.24163
29.65	2.23505
29.66	2.26367
29.67	2.23078
29.68	2.24459
29.69	2.23045
29.7	2.23801
29.71	2.25315
29.72	2.24065
29.73	2.24657
29.74	2.25413
29.75	2.25084
29.76	2.26696
29.77	2.26302
29.78	2.25907
29.79	2.26598
29.8	2.264
29.81	2.26038
29.82	2.25479
29.83	2.23571
29.84	2.27716
29.85	2.26598
29.86	2.2344
29.87	2.23308
29.88	2.24163
29.89	2.24229
29.9	2.24427
29.91	2.2617
29.92	2.26828
29.93	2.24427
29.94	2.26006
29.95	2.23045
29.96	2.21663
29.97	2.25019
29.98	2.24065
29.99	2.24591
30	2.27321
30.01	2.26006
30.02	2.25742
30.03	2.30479
30.04	2.26927
30.05	2.24821
30.06	2.23242
30.07	2.22584
30.08	2.23242
30.09	2.24262
30.1	2.23374
30.11	2.25479
30.12	2.2515
30.13	2.22486
30.14	2.24295
30.15	2.24262
30.16	2.26137
30.17	2.2413
30.18	2.23275
30.19	2.23736
30.2	2.25578
30.21	2.28242
30.22	2.25413
30.23	2.23144
30.24	2.25808
30.25	2.21696
30.26	2.23341
30.27	2.21861
30.28	2.22091
30.29	2.21104
30.3	2.2219
30.31	2.23637
30.32	2.2515
30.33	2.27354
30.34	2.26828
30.35	2.24459
30.36	2.24591
30.37	2.23834
30.38	2.23999
30.39	2.23933
30.4	2.26729
30.41	2.2538
30.42	2.21696
30.43	2.26927
30.44	2.27058
30.45	2.24986
30.46	2.2515
30.47	2.24427
30.48	2.25808
30.49	2.23637
30.5	2.24196
30.51	2.23242
30.52	2.24427
30.53	2.24262
30.54	2.23078
30.55	2.22716
30.56	2.22815
30.57	2.26203
30.58	2.24361
30.59	2.23209
30.6	2.23308
30.61	2.27025
30.62	2.24821
30.63	2.22157
30.64	2.24065
30.65	2.25973
30.66	2.26565
30.67	2.20808
30.68	2.22946
30.69	2.23374
30.7	2.2617
30.71	2.24328
30.72	2.24361
30.73	2.25742
30.74	2.24788
30.75	2.25709
30.76	2.22551
30.77	2.26137
30.78	2.25117
30.79	2.2367
30.8	2.23144
30.81	2.22848
30.82	2.25282
30.83	2.26269
30.84	2.25775
30.85	2.21861
30.86	2.24065
30.87	2.25907
30.88	2.24328
30.89	2.21992
30.9	2.20545
30.91	2.23505
30.92	2.2367
30.93	2.24196
30.94	2.24328
30.95	2.25315
30.96	2.26663
30.97	2.26466
30.98	2.22617
30.99	2.2413
31	2.25282
31.01	2.21565
31.02	2.24295
31.03	2.24262
31.04	2.25841
31.05	2.26236
31.06	2.23275
31.07	2.23341
31.08	2.26367
31.09	2.24427
31.1	2.22979
31.11	2.26006
31.12	2.25249
31.13	2.24821
31.14	2.24295
31.15	2.25874
31.16	2.25052
31.17	2.26334
31.18	2.26696
31.19	2.25512
31.2	2.24821
31.21	2.23769
31.22	2.24986
31.23	2.28144
31.24	2.25117
31.25	2.25545
31.26	2.23144
31.27	2.264
31.28	2.22979
31.29	2.24328
31.3	2.2469
31.31	2.23637
31.32	2.24065
31.33	2.24065
31.34	2.26894
31.35	2.26038
31.36	2.24887
31.37	2.2367
31.38	2.24953
31.39	2.21795
31.4	2.22222
31.41	2.24525
31.42	2.27519
31.43	2.25709
31.44	2.27617
31.45	2.25973
31.46	2.23209
31.47	2.25348
31.48	2.26959
31.49	2.26203
31.5	2.24953
31.51	2.25907
31.52	2.24459
31.53	2.27552
31.54	2.25841
31.55	2.27058
31.56	2.26104
31.57	2.26959
31.58	2.25907
31.59	2.2469
31.6	2.26894
31.61	2.25183
31.62	2.2594
31.63	2.24427
31.64	2.25709
31.65	2.23604
31.66	2.23801
31.67	2.24953
31.68	2.26861
31.69	2.24887
31.7	2.24492
31.71	2.25545
31.72	2.21696
31.73	2.25677
31.74	2.26696
31.75	2.26433
31.76	2.24459
31.77	2.22453
31.78	2.23012
31.79	2.20545
31.8	2.25742
31.81	2.26334
31.82	2.24558
31.83	2.25052
31.84	2.24723
31.85	2.24591
31.86	2.2413
31.87	2.24755
31.88	2.23769
31.89	2.23867
31.9	2.24591
31.91	2.25446
31.92	2.22157
31.93	2.23834
31.94	2.23144
31.95	2.2492
31.96	2.2367
31.97	2.23144
31.98	2.23111
31.99	2.22354
32	2.24427
32.01	2.2367
32.02	2.21038
32.03	2.24525
32.04	2.25742
32.05	2.289
32.06	2.26137
32.07	2.22321
32.08	2.24788
32.09	2.24624
32.1	2.25709
32.11	2.25249
32.12	2.24525
32.13	2.26927
32.14	2.25644
32.15	2.24295
32.16	2.2492
32.17	2.25545
32.18	2.24624
32.19	2.2538
32.2	2.25775
32.21	2.24065
32.22	2.2469
32.23	2.23769
32.24	2.25545
32.25	2.25315
32.26	2.23703
32.27	2.25841
32.28	2.21959
32.29	2.24032
32.3	2.26433
32.31	2.23045
32.32	2.25315
32.33	2.23736
32.34	2.22584
32.35	2.27321
32.36	2.27815
32.37	2.24723
32.38	2.24459
32.39	2.2219
32.4	2.23769
32.41	2.20413
32.42	2.23407
32.43	2.25019
32.44	2.26663
32.45	2.24854
32.46	2.2367
32.47	2.25709
32.48	2.24492
32.49	2.23242
32.5	2.22025
32.51	2.23242
32.52	2.25315
32.53	2.26565
32.54	2.27453
32.55	2.25841
32.56	2.21663
32.57	2.27223
32.58	2.23144
32.59	2.2538
32.6	2.26071
32.61	2.26137
32.62	2.24459
32.63	2.25775
32.64	2.26861
32.65	2.22519
32.66	2.24262
32.67	2.26762
32.68	2.24821
32.69	2.27683
32.7	2.2515
32.71	2.2492
32.72	2.24755
32.73	2.2515
32.74	2.25808
32.75	2.27453
32.76	2.21959
32.77	2.24755
32.78	2.23374
32.79	2.23801
32.8	2.24591
32.81	2.22716
32.82	2.239
32.83	2.26696
32.84	2.25479
32.85	2.26302
32.86	2.24163
32.87	2.24427
32.88	2.21959
32.89	2.25282
32.9	2.24591
32.91	2.24163
32.92	2.25019
32.93	2.27091
32.94	2.24723
32.95	2.25545
32.96	2.23933
32.97	2.2515
32.98	2.2344
32.99	2.22617
33	2.23834
33.01	2.26203
33.02	2.23012
33.03	2.24986
33.04	2.24624
33.05	2.25677
33.06	2.23209
33.07	2.21762
33.08	2.23242
33.09	2.27256
33.1	2.24624
33.11	2.25973
33.12	2.25249
33.13	2.2515
33.14	2.24986
33.15	2.24788
33.16	2.239
33.17	2.23801
33.18	2.23801
33.19	2.27979
33.2	2.25446
33.21	2.23933
33.22	2.21597
33.23	2.2219
33.24	2.23736
33.25	2.25479
33.26	2.23341
33.27	2.23571
33.28	2.24394
33.29	2.26038
33.3	2.24459
33.31	2.24624
33.32	2.23012
33.33	2.24657
33.34	2.25348
33.35	2.23604
33.36	2.22913
33.37	2.239
33.38	2.25117
33.39	2.24854
33.4	2.24427
33.41	2.24328
33.42	2.24328
33.43	2.25019
33.44	2.24854
33.45	2.25084
33.46	2.23538
33.47	2.26302
33.48	2.25775
33.49	2.27091
33.5	2.27519
33.51	2.24657
33.52	2.25315
33.53	2.2367
33.54	2.24887
33.55	2.23275
33.56	2.26203
33.57	2.2219
33.58	2.24065
33.59	2.25644
33.6	2.24163
33.61	2.2413
33.62	2.25578
33.63	2.26927
33.64	2.28177
33.65	2.23045
33.66	2.23407
33.67	2.26828
33.68	2.25315
33.69	2.23571
33.7	2.25808
33.71	2.26499
33.72	2.2492
33.73	2.26927
33.74	2.2492
33.75	2.24558
33.76	2.24854
33.77	2.23374
33.78	2.21137
33.79	2.23045
33.8	2.23209
33.81	2.22387
33.82	2.22387
33.83	2.25644
33.84	2.25183
33.85	2.26992
33.86	2.27453
33.87	2.25183
33.88	2.24394
33.89	2.23604
33.9	2.25019
33.91	2.27387
33.92	2.23703
33.93	2.23242
33.94	2.24328
33.95	2.25348
33.96	2.26861
33.97	2.25677
33.98	2.26433
33.99	2.24887
34	2.21959
34.01	2.25578
34.02	2.2492
34.03	2.21301
34.04	2.22617
34.05	2.25611
34.06	2.25775
34.07	2.23769
34.08	2.24591
34.09	2.26894
34.1	2.23637
34.11	2.239
34.12	2.22749
34.13	2.24262
34.14	2.25874
34.15	2.24755
34.16	2.26302
34.17	2.21203
34.18	2.24624
34.19	2.23571
34.2	2.23801
34.21	2.25216
34.22	2.2492
34.23	2.21137
34.24	2.2288
34.25	2.25348
34.26	2.24229
34.27	2.26367
34.28	2.23407
34.29	2.23242
34.3	2.24459
34.31	2.22683
34.32	2.25479
34.33	2.25446
34.34	2.24459
34.35	2.22222
34.36	2.24624
34.37	2.23374
34.38	2.2538
34.39	2.24821
34.4	2.25446
34.41	2.25084
34.42	2.23637
34.43	2.23538
34.44	2.25249
34.45	2.22551
34.46	2.21532
34.47	2.23275
34.48	2.26367
34.49	2.26499
34.5	2.25973
34.51	2.24394
34.52	2.25479
34.53	2.22288
34.54	2.23473
34.55	2.23012
34.56	2.22848
34.57	2.25874
34.58	2.23571
34.59	2.23637
34.6	2.25052
34.61	2.2265
34.62	2.2492
34.63	2.25775
34.64	2.24525
34.65	2.25808
34.66	2.2617
34.67	2.23571
34.68	2.25315
34.69	2.25874
34.7	2.23111
34.71	2.2413
34.72	2.23703
34.73	2.22584
34.74	2.24262
34.75	2.26565
34.76	2.22782
34.77	2.25611
34.78	2.27749
34.79	2.25611
34.8	2.21236
34.81	2.23308
34.82	2.25019
34.83	2.2515
34.84	2.25545
34.85	2.25841
34.86	2.24953
34.87	2.24755
34.88	2.2515
34.89	2.24229
34.9	2.27058
34.91	2.26499
34.92	2.24427
34.93	2.22288
34.94	2.2413
34.95	2.2538
34.96	2.24163
34.97	2.22617
34.98	2.23736
34.99	2.26006
35	2.26104
35.01	2.23933
35.02	2.22584
35.03	2.24723
35.04	2.2219
35.05	2.23308
35.06	2.26334
35.07	2.2617
35.08	2.25907
35.09	2.25512
35.1	2.23176
35.11	2.2344
35.12	2.27321
35.13	2.26861
35.14	2.24624
35.15	2.2538
35.16	2.27815
35.17	2.27815
35.18	2.25907
35.19	2.24295
35.2	2.23801
35.21	2.22551
35.22	2.22519
35.23	2.19788
35.24	2.23867
35.25	2.2492
35.26	2.23308
35.27	2.26006
35.28	2.25709
35.29	2.23407
35.3	2.2163
35.31	2.2617
35.32	2.23637
35.33	2.24098
35.34	2.24723
35.35	2.23999
35.36	2.26104
35.37	2.2344
35.38	2.22551
35.39	2.23703
35.4	2.23374
35.41	2.24262
35.42	2.28867
35.43	2.2469
35.44	2.23966
35.45	2.24657
35.46	2.24854
35.47	2.23703
35.48	2.26038
35.49	2.26137
35.5	2.22683
35.51	2.2469
35.52	2.23242
35.53	2.23209
35.54	2.24065
35.55	2.22848
35.56	2.25742
35.57	2.25446
35.58	2.22848
35.59	2.24459
35.6	2.25216
35.61	2.26433
35.62	2.26466
35.63	2.26236
35.64	2.24295
35.65	2.25282
35.66	2.24657
35.67	2.26861
35.68	2.27354
35.69	2.24986
35.7	2.24788
35.71	2.24328
35.72	2.27979
35.73	2.23045
35.74	2.24328
35.75	2.25709
35.76	2.22288
35.77	2.24821
35.78	2.25973
35.79	2.2219
35.8	2.25742
35.81	2.25183
35.82	2.25315
35.83	2.2492
35.84	2.27354
35.85	2.24788
35.86	2.27716
35.87	2.26071
35.88	2.25315
35.89	2.24032
35.9	2.27552
35.91	2.24591
35.92	2.26137
35.93	2.26795
35.94	2.24394
35.95	2.25052
35.96	2.25578
35.97	2.25479
35.98	2.22288
35.99	2.21926
36	2.23604
36.01	2.26828
36.02	2.26236
36.03	2.26729
36.04	2.26006
36.05	2.25216
36.06	2.24459
36.07	2.2344
36.08	2.24986
36.09	2.2413
36.1	2.24163
36.11	2.27617
36.12	2.2265
36.13	2.22617
36.14	2.24591
36.15	2.24986
36.16	2.25348
36.17	2.24229
36.18	2.24163
36.19	2.24492
36.2	2.2344
36.21	2.24361
36.22	2.26927
36.23	2.25677
36.24	2.264
36.25	2.25973
36.26	2.26334
36.27	2.23374
36.28	2.24065
36.29	2.22683
36.3	2.22058
36.31	2.23834
36.32	2.24492
36.33	2.22321
36.34	2.22025
36.35	2.26499
36.36	2.23012
36.37	2.24459
36.38	2.27157
36.39	2.25282
36.4	2.2515
36.41	2.21137
36.42	2.22387
36.43	2.23769
36.44	2.23736
36.45	2.23407
36.46	2.27486
36.47	2.25545
36.48	2.239
36.49	2.23242
36.5	2.24163
36.51	2.21894
36.52	2.20611
36.53	2.21071
36.54	2.26104
36.55	2.25249
36.56	2.2242
36.57	2.23308
36.58	2.26334
36.59	2.27519
36.6	2.22617
36.61	2.23999
36.62	2.22091
36.63	2.24591
36.64	2.24525
36.65	2.23769
36.66	2.2265
36.67	2.22091
36.68	2.20643
36.69	2.21663
36.7	2.22519
36.71	2.22354
36.72	2.24624
36.73	2.25413
36.74	2.26006
36.75	2.25216
36.76	2.26137
36.77	2.23571
36.78	2.2515
36.79	2.24788
36.8	2.23209
36.81	2.22617
36.82	2.25216
36.83	2.25677
36.84	2.2288
36.85	2.25052
36.86	2.23703
36.87	2.23308
36.88	2.25183
36.89	2.24427
36.9	2.23736
36.91	2.24854
36.92	2.22519
36.93	2.22979
36.94	2.24591
36.95	2.26894
36.96	2.23407
36.97	2.24755
36.98	2.21959
36.99	2.25775
37	2.2367
37.01	2.25348
37.02	2.19591
37.03	2.24492
37.04	2.24229
37.05	2.22584
37.06	2.2469
37.07	2.23933
37.08	2.2413
37.09	2.23867
37.1	2.23538
37.11	2.24229
37.12	2.24229
37.13	2.25775
37.14	2.23144
37.15	2.22354
37.16	2.22058
37.17	2.21663
37.18	2.25545
37.19	2.25512
37.2	2.22321
37.21	2.23571
37.22	2.22716
37.23	2.22354
37.24	2.21663
37.25	2.24887
37.26	2.2469
37.27	2.26466
37.28	2.24591
37.29	2.25479
37.3	2.26367
37.31	2.23867
37.32	2.26104
37.33	2.2844
37.34	2.2492
37.35	2.2265
37.36	2.25249
37.37	2.26828
37.38	2.2413
37.39	2.25052
37.4	2.24558
37.41	2.25446
37.42	2.26762
37.43	2.23834
37.44	2.24821
37.45	2.25808
37.46	2.25348
37.47	2.25973
37.48	2.2469
37.49	2.25874
37.5	2.25019
37.51	2.24163
37.52	2.23867
37.53	2.26269
37.54	2.22519
37.55	2.25052
37.56	2.25413
37.57	2.26861
37.58	2.26367
37.59	2.23374
37.6	2.23308
37.61	2.21894
37.62	2.23012
37.63	2.19163
37.64	2.23209
37.65	2.22058
37.66	2.25084
37.67	2.2413
37.68	2.27946
37.69	2.2492
37.7	2.23111
37.71	2.23966
37.72	2.2367
37.73	2.26071
37.74	2.23834
37.75	2.22124
37.76	2.25973
37.77	2.2469
37.78	2.23341
37.79	2.21696
37.8	2.22222
37.81	2.25052
37.82	2.25249
37.83	2.2844
37.84	2.23966
37.85	2.22551
37.86	2.24624
37.87	2.25841
37.88	2.23308
37.89	2.23473
37.9	2.23341
37.91	2.26071
37.92	2.23078
37.93	2.23834
37.94	2.23867
37.95	2.25677
37.96	2.24723
37.97	2.23012
37.98	2.21597
37.99	2.26104
38	2.24723
38.01	2.22848
38.02	2.27321
38.03	2.26006
38.04	2.22683
38.05	2.25742
38.06	2.25413
38.07	2.24558
38.08	2.25413
38.09	2.26269
38.1	2.23867
38.11	2.2038
38.12	2.21729
38.13	2.24854
38.14	2.23966
38.15	2.2469
38.16	2.24558
38.17	2.23078
38.18	2.23637
38.19	2.25742
38.2	2.2765
38.21	2.27716
38.22	2.23308
38.23	2.23176
38.24	2.22519
38.25	2.23999
38.26	2.22749
38.27	2.24887
38.28	2.24295
38.29	2.28604
38.3	2.23111
38.31	2.23703
38.32	2.27091
38.33	2.26696
38.34	2.24163
38.35	2.23407
38.36	2.2367
38.37	2.23834
38.38	2.26992
38.39	2.25413
38.4	2.24624
38.41	2.26269
38.42	2.23933
38.43	2.26729
38.44	2.24295
38.45	2.27124
38.46	2.25742
38.47	2.26269
38.48	2.25874
38.49	2.24953
38.5	2.24723
38.51	2.25019
38.52	2.24163
38.53	2.24821
38.54	2.25183
38.55	2.23571
38.56	2.22683
38.57	2.25775
38.58	2.28308
38.59	2.25677
38.6	2.23275
38.61	2.24196
38.62	2.25709
38.63	2.22617
38.64	2.25084
38.65	2.26663
38.66	2.24723
38.67	2.24459
38.68	2.23604
38.69	2.2367
38.7	2.23078
38.71	2.24525
38.72	2.23209
38.73	2.23374
38.74	2.24854
38.75	2.24032
38.76	2.25479
38.77	2.26137
38.78	2.2367
38.79	2.26236
38.8	2.22387
38.81	2.24196
38.82	2.26038
38.83	2.24394
38.84	2.25973
38.85	2.24459
38.86	2.22716
38.87	2.21532
38.88	2.24624
38.89	2.24624
38.9	2.22815
38.91	2.2492
38.92	2.24065
38.93	2.2117
38.94	2.22058
38.95	2.25907
38.96	2.24854
38.97	2.23341
38.98	2.20775
38.99	2.2242
39	2.24459
39.01	2.23341
39.02	2.26236
39.03	2.23933
39.04	2.22617
39.05	2.23144
39.06	2.24723
39.07	2.24361
39.08	2.24459
39.09	2.23801
39.1	2.25052
39.11	2.26038
39.12	2.22288
39.13	2.1992
39.14	2.24295
39.15	2.25413
39.16	2.23242
39.17	2.24558
39.18	2.26302
39.19	2.25413
39.2	2.24229
39.21	2.26071
39.22	2.24624
39.23	2.22782
39.24	2.23505
39.25	2.26565
39.26	2.26466
39.27	2.25282
39.28	2.24328
39.29	2.23308
39.3	2.23867
39.31	2.25775
39.32	2.24624
39.33	2.26006
39.34	2.24427
39.35	2.25084
39.36	2.23571
39.37	2.24723
39.38	2.22749
39.39	2.24755
39.4	2.23966
39.41	2.26466
39.42	2.2344
39.43	2.24887
39.44	2.20643
39.45	2.22321
39.46	2.24163
39.47	2.24986
39.48	2.24361
39.49	2.22551
39.5	2.24262
39.51	2.21499
39.52	2.23801
39.53	2.23801
39.54	2.24163
39.55	2.25019
39.56	2.26598
39.57	2.26104
39.58	2.22749
39.59	2.25611
39.6	2.24657
39.61	2.24032
39.62	2.21926
39.63	2.22551
39.64	2.22716
39.65	2.2413
39.66	2.25315
39.67	2.26433
39.68	2.25413
39.69	2.23999
39.7	2.22288
39.71	2.22222
39.72	2.25479
39.73	2.24657
39.74	2.25117
39.75	2.2413
39.76	2.25709
39.77	2.22157
39.78	2.22058
39.79	2.2538
39.8	2.25446
39.81	2.23999
39.82	2.23538
39.83	2.26269
39.84	2.23078
39.85	2.22979
39.86	2.2344
39.87	2.24525
39.88	2.23999
39.89	2.23999
39.9	2.22288
39.91	2.24098
39.92	2.25052
39.93	2.21861
39.94	2.25019
39.95	2.23505
39.96	2.23736
39.97	2.23571
39.98	2.24427
39.99	2.24558
40	2.24032
40.01	2.239
40.02	2.22946
40.03	2.26334
40.04	2.27321
40.05	2.22157
40.06	2.23045
40.07	2.2469
40.08	2.24328
40.09	2.23078
40.1	2.23505
40.11	2.23242
40.12	2.25907
40.13	2.24821
40.14	2.24624
40.15	2.23111
40.16	2.24887
40.17	2.22453
40.18	2.25742
40.19	2.21466
40.2	2.22913
40.21	2.22255
40.22	2.26499
40.23	2.26499
40.24	2.26269
40.25	2.2469
40.26	2.2219
40.27	2.23505
40.28	2.24755
40.29	2.26334
40.3	2.23176
40.31	2.23736
40.32	2.21926
40.33	2.23933
40.34	2.2469
40.35	2.22387
40.36	2.22584
40.37	2.24657
40.38	2.26532
40.39	2.23801
40.4	2.23341
40.41	2.24755
40.42	2.27486
40.43	2.23637
40.44	2.25677
40.45	2.25183
40.46	2.2594
40.47	2.23275
40.48	2.22716
40.49	2.24262
40.5	2.24755
40.51	2.24887
40.52	2.2367
40.53	2.25052
40.54	2.20611
40.55	2.24492
40.56	2.2617
40.57	2.25479
40.58	2.21137
40.59	2.22749
40.6	2.25841
40.61	2.26071
40.62	2.2617
40.63	2.23571
40.64	2.24065
40.65	2.24723
40.66	2.24229
40.67	2.23703
40.68	2.25973
40.69	2.26762
40.7	2.23012
40.71	2.2265
40.72	2.23176
40.73	2.26959
40.74	2.2594
40.75	2.21959
40.76	2.23144
40.77	2.23012
40.78	2.24887
40.79	2.25249
40.8	2.23144
40.81	2.24229
40.82	2.24459
40.83	2.25216
40.84	2.25841
40.85	2.2219
40.86	2.2469
40.87	2.24887
40.88	2.23209
40.89	2.2492
40.9	2.25742
40.91	2.27552
40.92	2.28012
40.93	2.24657
40.94	2.24657
40.95	2.2492
40.96	2.27881
40.97	2.22584
40.98	2.264
40.99	2.25249
41	2.23571
41.01	2.23505
41.02	2.2265
41.03	2.24295
41.04	2.22749
41.05	2.23209
41.06	2.22519
41.07	2.23473
41.08	2.21992
41.09	2.24328
41.1	2.22913
41.11	2.24032
41.12	2.24163
41.13	2.25808
41.14	2.25249
41.15	2.24098
41.16	2.23637
41.17	2.23407
41.18	2.21894
41.19	2.21104
41.2	2.23933
41.21	2.24196
41.22	2.22058
41.23	2.26104
41.24	2.25249
41.25	2.22979
41.26	2.26367
41.27	2.24788
41.28	2.2242
41.29	2.24558
41.3	2.25183
41.31	2.2469
41.32	2.22782
41.33	2.23999
41.34	2.23473
41.35	2.2492
41.36	2.23209
41.37	2.24788
41.38	2.23604
41.39	2.21334
41.4	2.20611
41.41	2.2117
41.42	2.22617
41.43	2.26269
41.44	2.26466
41.45	2.24427
41.46	2.23308
41.47	2.22617
41.48	2.24854
41.49	2.24953
41.5	2.23834
41.51	2.25446
41.52	2.22321
41.53	2.23604
41.54	2.25512
41.55	2.24098
41.56	2.23933
41.57	2.239
41.58	2.25183
41.59	2.21367
41.6	2.23999
41.61	2.23505
41.62	2.25315
41.63	2.24821
41.64	2.24657
41.65	2.2515
41.66	2.22913
41.67	2.23999
41.68	2.22387
41.69	2.25479
41.7	2.2163
41.71	2.22979
41.72	2.24262
41.73	2.25282
41.74	2.22848
41.75	2.21729
41.76	2.23111
41.77	2.21334
41.78	2.26104
41.79	2.21959
41.8	2.2344
41.81	2.22519
41.82	2.24065
41.83	2.25479
41.84	2.25808
41.85	2.27815
41.86	2.24492
41.87	2.24229
41.88	2.24755
41.89	2.26729
41.9	2.25808
41.91	2.2594
41.92	2.25019
41.93	2.27979
41.94	2.24657
41.95	2.25084
41.96	2.26269
41.97	2.26696
41.98	2.25841
41.99	2.23999
42	2.23505
42.01	2.26433
42.02	2.24065
42.03	2.24295
42.04	2.26367
42.05	2.23045
42.06	2.25249
42.07	2.2344
42.08	2.25117
42.09	2.25479
42.1	2.23505
42.11	2.25479
42.12	2.24262
42.13	2.24591
42.14	2.25578
42.15	2.28703
42.16	2.2367
42.17	2.24196
42.18	2.24591
42.19	2.26532
42.2	2.23801
42.21	2.23144
42.22	2.24558
42.23	2.22815
42.24	2.25775
42.25	2.25117
42.26	2.2367
42.27	2.26071
42.28	2.24854
42.29	2.214
42.3	2.23176
42.31	2.24788
42.32	2.27354
42.33	2.26894
42.34	2.28177
42.35	2.2594
42.36	2.27749
42.37	2.27321
42.38	2.24262
42.39	2.2242
42.4	2.239
42.41	2.2469
42.42	2.23045
42.43	2.25315
42.44	2.25742
42.45	2.24755
42.46	2.23538
42.47	2.21466
42.48	2.2367
42.49	2.25479
42.5	2.24065
42.51	2.24986
42.52	2.25019
42.53	2.24262
42.54	2.24262
42.55	2.28506
42.56	2.26499
42.57	2.24229
42.58	2.25413
42.59	2.23144
42.6	2.214
42.61	2.2265
42.62	2.2469
42.63	2.23571
42.64	2.22716
42.65	2.28045
42.66	2.26959
42.67	2.23505
42.68	2.20018
42.69	2.22321
42.7	2.23966
42.71	2.25775
42.72	2.20216
42.73	2.2265
42.74	2.23473
42.75	2.24525
42.76	2.22486
42.77	2.22979
42.78	2.24887
42.79	2.26631
42.8	2.25907
42.81	2.2265
42.82	2.25644
42.83	2.27058
42.84	2.25775
42.85	2.26367
42.86	2.23637
42.87	2.25578
42.88	2.25413
42.89	2.24328
42.9	2.26828
42.91	2.2413
42.92	2.2515
42.93	2.25808
42.94	2.2538
42.95	2.23374
42.96	2.23867
42.97	2.24065
42.98	2.25709
42.99	2.25479
43	2.24887
43.01	2.26302
43.02	2.27453
43.03	2.239
43.04	2.22913
43.05	2.23933
43.06	2.23078
43.07	2.25973
43.08	2.26038
43.09	2.21203
43.1	2.22749
43.11	2.25282
43.12	2.25841
43.13	2.2742
43.14	2.23045
43.15	2.23505
43.16	2.24558
43.17	2.23407
43.18	2.26038
43.19	2.23736
43.2	2.22025
43.21	2.24624
43.22	2.22387
43.23	2.26137
43.24	2.25709
43.25	2.23209
43.26	2.22321
43.27	2.23834
43.28	2.23538
43.29	2.23012
43.3	2.24887
43.31	2.22519
43.32	2.23867
43.33	2.22157
43.34	2.23374
43.35	2.24032
43.36	2.21828
43.37	2.2617
43.38	2.24624
43.39	2.25117
43.4	2.23769
43.41	2.24986
43.42	2.24887
43.43	2.23867
43.44	2.24788
43.45	2.2344
43.46	2.26861
43.47	2.26466
43.48	2.2594
43.49	2.26236
43.5	2.22683
43.51	2.24328
43.52	2.22749
43.53	2.25183
43.54	2.27453
43.55	2.26532
43.56	2.26071
43.57	2.2538
43.58	2.24887
43.59	2.2617
43.6	2.26104
43.61	2.21663
43.62	2.22354
43.63	2.24196
43.64	2.26104
43.65	2.24558
43.66	2.23505
43.67	2.22617
43.68	2.22091
43.69	2.22354
43.7	2.23538
43.71	2.22782
43.72	2.24459
43.73	2.22519
43.74	2.23242
43.75	2.25512
43.76	2.22222
43.77	2.20347
43.78	2.25249
43.79	2.25808
43.8	2.28407
43.81	2.25973
43.82	2.23933
43.83	2.24032
43.84	2.23867
43.85	2.22519
43.86	2.24229
43.87	2.2344
43.88	2.20216
43.89	2.23538
43.9	2.25973
43.91	2.25512
43.92	2.26137
43.93	2.23538
43.94	2.26499
43.95	2.23703
43.96	2.24163
43.97	2.24723
43.98	2.23538
43.99	2.25084
44	2.23308
44.01	2.25446
44.02	2.23801
44.03	2.2163
44.04	2.26367
44.05	2.28275
44.06	2.25348
44.07	2.24229
44.08	2.26532
44.09	2.19229
44.1	2.21203
44.11	2.23111
44.12	2.24755
44.13	2.27519
44.14	2.23966
44.15	2.24624
44.16	2.22519
44.17	2.23703
44.18	2.27552
44.19	2.25775
44.2	2.26631
44.21	2.26959
44.22	2.26334
44.23	2.26565
44.24	2.27519
44.25	2.24262
44.26	2.26038
44.27	2.2594
44.28	2.24328
44.29	2.23604
44.3	2.23604
44.31	2.239
44.32	2.23571
44.33	2.23999
44.34	2.26499
44.35	2.24854
44.36	2.23176
44.37	2.24492
44.38	2.25019
44.39	2.24657
44.4	2.25709
44.41	2.25709
44.42	2.27157
44.43	2.239
44.44	2.23801
44.45	2.22979
44.46	2.24163
44.47	2.23111
44.48	2.2719
44.49	2.2367
44.5	2.22716
44.51	2.22519
44.52	2.2265
44.53	2.21762
44.54	2.23209
44.55	2.25315
44.56	2.26038
44.57	2.25545
44.58	2.27946
44.59	2.25545
44.6	2.27025
44.61	2.24229
44.62	2.24427
44.63	2.25973
44.64	2.26663
44.65	2.22913
44.66	2.23341
44.67	2.22716
44.68	2.23111
44.69	2.23637
44.7	2.2617
44.71	2.24953
44.72	2.23637
44.73	2.24427
44.74	2.2367
44.75	2.22387
44.76	2.23176
44.77	2.239
44.78	2.24492
44.79	2.25183
44.8	2.25117
44.81	2.24657
44.82	2.25512
44.83	2.20249
44.84	2.22848
44.85	2.26137
44.86	2.26795
44.87	2.24492
44.88	2.24755
44.89	2.22848
44.9	2.25249
44.91	2.2242
44.92	2.23933
44.93	2.25413
44.94	2.27091
44.95	2.23242
44.96	2.22124
44.97	2.22716
44.98	2.2515
44.99	2.23144
45	2.25808
45.01	2.21038
45.02	2.22979
45.03	2.24065
45.04	2.23505
45.05	2.26269
45.06	2.24953
45.07	2.2288
45.08	2.26137
45.09	2.23341
45.1	2.24821
45.11	2.23538
45.12	2.21499
45.13	2.2492
45.14	2.25775
45.15	2.25052
45.16	2.24953
45.17	2.25578
45.18	2.30019
45.19	2.23308
45.2	2.24755
45.21	2.239
45.22	2.24459
45.23	2.24723
45.24	2.24295
45.25	2.25677
45.26	2.23078
45.27	2.22716
45.28	2.22255
45.29	2.21137
45.3	2.24394
45.31	2.20775
45.32	2.26071
45.33	2.26269
45.34	2.23999
45.35	2.23275
45.36	2.24229
45.37	2.23012
45.38	2.22782
45.39	2.22551
45.4	2.24065
45.41	2.26203
45.42	2.24492
45.43	2.23374
45.44	2.2515
45.45	2.23933
45.46	2.24328
45.47	2.23176
45.48	2.25479
45.49	2.26269
45.5	2.23703
45.51	2.22913
45.52	2.22486
45.53	2.23308
45.54	2.23111
45.55	2.25841
45.56	2.26071
45.57	2.24953
45.58	2.25183
45.59	2.21828
45.6	2.22979
45.61	2.25052
45.62	2.24986
45.63	2.23637
45.64	2.21663
45.65	2.25413
45.66	2.26565
45.67	2.28999
45.68	2.23867
45.69	2.23703
45.7	2.25216
45.71	2.23834
45.72	2.25874
45.73	2.21433
45.74	2.21926
45.75	2.25644
45.76	2.28012
45.77	2.25413
45.78	2.24196
45.79	2.27946
45.8	2.27387
45.81	2.24492
45.82	2.24887
45.83	2.25216
45.84	2.23999
45.85	2.23571
45.86	2.26071
45.87	2.25611
45.88	2.24854
45.89	2.27519
45.9	2.24427
45.91	2.239
45.92	2.26367
45.93	2.2265
45.94	2.21071
45.95	2.25841
45.96	2.25282
45.97	2.2492
45.98	2.25545
45.99	2.22551
46	2.23933
46.01	2.26302
46.02	2.26137
46.03	2.23308
46.04	2.24098
46.05	2.25216
46.06	2.25052
46.07	2.22584
46.08	2.21696
46.09	2.22288
46.1	2.24098
46.11	2.24229
46.12	2.22617
46.13	2.25084
46.14	2.23637
46.15	2.24328
46.16	2.26762
46.17	2.24492
46.18	2.23703
46.19	2.2765
46.2	2.28078
46.21	2.21828
46.22	2.26762
46.23	2.25117
46.24	2.24065
46.25	2.26104
46.26	2.24262
46.27	2.21959
46.28	2.23571
46.29	2.24558
46.3	2.25446
46.31	2.2538
46.32	2.23801
46.33	2.22913
46.34	2.25084
46.35	2.23703
46.36	2.22749
46.37	2.24854
46.38	2.21894
46.39	2.25282
46.4	2.23538
46.41	2.23703
46.42	2.25677
46.43	2.23176
46.44	2.20545
46.45	2.2515
46.46	2.23966
46.47	2.26861
46.48	2.23012
46.49	2.24196
46.5	2.25282
46.51	2.24065
46.52	2.21367
46.53	2.23111
46.54	2.2413
46.55	2.27157
46.56	2.22683
46.57	2.26038
46.58	2.24492
46.59	2.22979
46.6	2.24525
46.61	2.28177
46.62	2.28999
46.63	2.24788
46.64	2.25117
46.65	2.23933
46.66	2.20709
46.67	2.23407
46.68	2.24295
46.69	2.24558
46.7	2.2117
46.71	2.22551
46.72	2.25545
46.73	2.20808
46.74	2.2594
46.75	2.2617
46.76	2.25348
46.77	2.23111
46.78	2.24196
46.79	2.26071
46.8	2.27387
46.81	2.24821
46.82	2.24854
46.83	2.239
46.84	2.2367
46.85	2.24591
46.86	2.24328
46.87	2.26038
46.88	2.25315
46.89	2.21894
46.9	2.21038
46.91	2.24953
46.92	2.2617
46.93	2.239
46.94	2.22815
46.95	2.22453
46.96	2.22946
46.97	2.2288
46.98	2.21795
46.99	2.2367
47	2.26038
47.01	2.24821
47.02	2.26631
47.03	2.24492
47.04	2.24262
47.05	2.25611
47.06	2.25183
47.07	2.26006
47.08	2.22157
47.09	2.26828
47.1	2.25216
47.11	2.27321
47.12	2.25611
47.13	2.25644
47.14	2.2469
47.15	2.21762
47.16	2.23867
47.17	2.25019
47.18	2.23801
47.19	2.23736
47.2	2.2367
47.21	2.2492
47.22	2.24163
47.23	2.25446
47.24	2.23966
47.25	2.21861
47.26	2.23538
47.27	2.23144
47.28	2.27552
47.29	2.25019
47.3	2.25446
47.31	2.24229
47.32	2.25183
47.33	2.22617
47.34	2.23176
47.35	2.2469
47.36	2.25348
47.37	2.22058
47.38	2.22486
47.39	2.23538
47.4	2.22157
47.41	2.26894
47.42	2.24525
47.43	2.24427
47.44	2.24459
47.45	2.24887
47.46	2.26861
47.47	2.26499
47.48	2.24459
47.49	2.24394
47.5	2.24723
47.51	2.22979
47.52	2.2344
47.53	2.24394
47.54	2.22519
47.55	2.26137
47.56	2.27486
47.57	2.26038
47.58	2.22551
47.59	2.22321
47.6	2.2094
47.61	2.25052
47.62	2.26828
47.63	2.25677
47.64	2.24229
47.65	2.22222
47.66	2.24953
47.67	2.2413
47.68	2.24295
47.69	2.25216
47.7	2.23209
47.71	2.21663
47.72	2.23703
47.73	2.23242
47.74	2.2617
47.75	2.23801
47.76	2.2344
47.77	2.24755
47.78	2.23736
47.79	2.2538
47.8	2.24591
47.81	2.26302
47.82	2.24262
47.83	2.24098
47.84	2.239
47.85	2.23078
47.86	2.27223
47.87	2.24163
47.88	2.22519
47.89	2.22387
47.9	2.24163
47.91	2.23209
47.92	2.2594
47.93	2.26828
47.94	2.23769
47.95	2.24525
47.96	2.25578
47.97	2.28308
47.98	2.29723
47.99	2.26565
48	2.24065
48.01	2.21696
48.02	2.25611
48.03	2.25742
48.04	2.23703
48.05	2.23801
48.06	2.27453
48.07	2.24953
48.08	2.24558
48.09	2.24394
48.1	2.24459
48.11	2.22848
48.12	2.26006
48.13	2.24295
48.14	2.22321
48.15	2.23176
48.16	2.23538
48.17	2.2242
48.18	2.26466
48.19	2.23933
48.2	2.21532
48.21	2.25019
48.22	2.25019
48.23	2.22782
48.24	2.23505
48.25	2.21236
48.26	2.25413
48.27	2.27124
48.28	2.23571
48.29	2.2288
48.3	2.23801
48.31	2.24854
48.32	2.2538
48.33	2.25677
48.34	2.21499
48.35	2.24361
48.36	2.25479
48.37	2.23867
48.38	2.23538
48.39	2.22716
48.4	2.24262
48.41	2.23473
48.42	2.25677
48.43	2.24459
48.44	2.21269
48.45	2.21038
48.46	2.23703
48.47	2.24821
48.48	2.24854
48.49	2.2719
48.5	2.2469
48.51	2.26203
48.52	2.26663
48.53	2.23176
48.54	2.23242
48.55	2.27091
48.56	2.24295
48.57	2.23834
48.58	2.2492
48.59	2.2367
48.6	2.24394
48.61	2.25611
48.62	2.25775
48.63	2.23637
48.64	2.25216
48.65	2.25249
48.66	2.23209
48.67	2.25907
48.68	2.26236
48.69	2.27486
48.7	2.24328
48.71	2.25841
48.72	2.24887
48.73	2.2515
48.74	2.22387
48.75	2.24986
48.76	2.2469
48.77	2.22387
48.78	2.22551
48.79	2.25315
48.8	2.26203
48.81	2.24854
48.82	2.24295
48.83	2.23933
48.84	2.24032
48.85	2.24788
48.86	2.2288
48.87	2.24591
48.88	2.22519
48.89	2.24098
48.9	2.24657
48.91	2.25841
48.92	2.25742
48.93	2.23538
48.94	2.24361
48.95	2.25644
48.96	2.22913
48.97	2.21663
48.98	2.21894
48.99	2.2469
49	2.24525
49.01	2.24986
49.02	2.27749
49.03	2.24328
49.04	2.23505
49.05	2.2742
49.06	2.27288
49.07	2.2538
49.08	2.27256
49.09	2.22979
49.1	2.24624
49.11	2.23505
49.12	2.24361
49.13	2.24624
49.14	2.24723
49.15	2.23637
49.16	2.23242
49.17	2.26236
49.18	2.25315
49.19	2.25479
49.2	2.24492
49.21	2.26038
49.22	2.23538
49.23	2.26104
49.24	2.24887
49.25	2.25216
49.26	2.23933
49.27	2.23111
49.28	2.19295
49.29	2.2594
49.3	2.26071
49.31	2.24098
49.32	2.22913
49.33	2.22124
49.34	2.27025
49.35	2.27486
49.36	2.21597
49.37	2.28078
49.38	2.26269
49.39	2.25709
49.4	2.26696
49.41	2.25315
49.42	2.25775
49.43	2.26992
49.44	2.22519
49.45	2.22551
49.46	2.23045
49.47	2.24723
49.48	2.23012
49.49	2.24295
49.5	2.24295
49.51	2.25249
49.52	2.25644
49.53	2.22749
49.54	2.25315
49.55	2.26137
49.56	2.22091
49.57	2.22453
49.58	2.25512
49.59	2.22946
49.6	2.22519
49.61	2.26071
49.62	2.27288
49.63	2.26532
49.64	2.24459
49.65	2.27486
49.66	2.24953
49.67	2.25019
49.68	2.25578
49.69	2.23407
49.7	2.24591
49.71	2.24986
49.72	2.20874
49.73	2.21334
49.74	2.24065
49.75	2.25282
49.76	2.22946
49.77	2.25512
49.78	2.25348
49.79	2.24427
49.8	2.25249
49.81	2.25677
49.82	2.25545
49.83	2.25808
49.84	2.23111
49.85	2.23341
49.86	2.25117
49.87	2.239
49.88	2.2413
49.89	2.2515
49.9	2.26302
49.91	2.22321
49.92	2.24262
49.93	2.24394
49.94	2.22321
49.95	2.23736
49.96	2.27091
49.97	2.2617
49.98	2.23736
49.99	2.21926
50	2.23275
