"BIO-KINE ASCII FILE"
"_COMMENT"	"MOS-500 Spectrometer"
"_COMMENT"	"Kinetics measurement"
"_COMMENT"	"Y Unit : Volt,  X Unit : s"
"_COMMENT"	"Excitation wavelength : 380 nm"
"_COMMENT"	"Fentes bandwidth =  1 nm"
"_COMMENT"	"HV= 1000V"
"_COMMENT"	"Timebase  1 =  .01 s   5001 pts"
"_SFM"	"SFM-400 /S  Advanced mode"
"_SFM"	"Ratio : S1: 2.5, S2: 0, S3: 0, S4: 1"
"_SFM"	"Content : S1: , S2: , S3: , S4:"
"_SFM"	"Concentration : S1: , S2: , S3: , S4:"
"_SFM"	"Total volume : 209 µl  Flow : 3.5 mL/s"
"_SFM"	"Acquisition start :  10 ms before stop"
"_SFM"	"cuve=FC-15, s1=10 ml , s2=10 ml , s3=10 ml , s4=1.9 ml"
"_UNITX"	"s"
"_UNITY"	"Volt"
"_DELTAX"	0
"_DATA"
1e-300	4.37657
0.01	4.32196
0.02	4.39335
0.03	4.48809
0.04	4.55684
0.05	4.57789
0.06	4.57362
0.07	4.62033
0.08	4.61375
0.09	4.62461
0.1	4.6348
0.11	4.65487
0.12	4.67921
0.13	4.67395
0.14	4.67296
0.15	4.69994
0.16	4.69763
0.17	4.67954
0.18	4.67658
0.19	4.70684
0.2	4.68152
0.21	4.73382
0.22	4.71474
0.23	4.71836
0.24	4.6677
0.25	4.71013
0.26	4.71178
0.27	4.71112
0.28	4.69369
0.29	4.6904
0.3	4.67461
0.31	4.67559
0.32	4.71211
0.33	4.72362
0.34	4.71507
0.35	4.71079
0.36	4.67954
0.37	4.70125
0.38	4.70125
0.39	4.66112
0.4	4.70454
0.41	4.71836
0.42	4.67954
0.43	4.65948
0.44	4.67198
0.45	4.67724
0.46	4.65191
0.47	4.65322
0.48	4.69994
0.49	4.67987
0.5	4.68875
0.51	4.64072
0.52	4.68908
0.53	4.68086
0.54	4.65224
0.55	4.65421
0.56	4.6654
0.57	4.69434
0.58	4.73053
0.59	4.7029
0.6	4.71408
0.61	4.66408
0.62	4.67855
0.63	4.71474
0.64	4.69073
0.65	4.66573
0.66	4.64928
0.67	4.63842
0.68	4.64303
0.69	4.63316
0.7	4.65717
0.71	4.66276
0.72	4.64467
0.73	4.60553
0.74	4.65586
0.75	4.64007
0.76	4.66276
0.77	4.67823
0.78	4.65717
0.79	4.67329
0.8	4.68316
0.81	4.66079
0.82	4.64533
0.83	4.64895
0.84	4.65059
0.85	4.6848
0.86	4.64138
0.87	4.65322
0.88	4.67099
0.89	4.67691
0.9	4.63941
0.91	4.67362
0.92	4.63382
0.93	4.64369
0.94	4.63086
0.95	4.65651
0.96	4.66211
0.97	4.63184
0.98	4.63645
0.99	4.59467
1	4.6223
1.01	4.57625
1.02	4.6098
1.03	4.61079
1.04	4.59664
1.05	4.64072
1.06	4.6575
1.07	4.65553
1.08	4.60092
1.09	4.58645
1.1	4.61605
1.11	4.61309
1.12	4.60849
1.13	4.61638
1.14	4.58414
1.15	4.61276
1.16	4.61408
1.17	4.62921
1.18	4.61572
1.19	4.61408
1.2	4.59533
1.21	4.63974
1.22	4.60224
1.23	4.62888
1.24	4.60849
1.25	4.60618
1.26	4.57428
1.27	4.59204
1.28	4.57756
1.29	4.58974
1.3	4.62
1.31	4.61112
1.32	4.58875
1.33	4.59796
1.34	4.61474
1.35	4.60421
1.36	4.55849
1.37	4.57395
1.38	4.58053
1.39	4.59599
1.4	4.55026
1.41	4.60421
1.42	4.56868
1.43	4.57954
1.44	4.55454
1.45	4.57658
1.46	4.6075
1.47	4.61342
1.48	4.63415
1.49	4.64105
1.5	4.59862
1.51	4.55651
1.52	4.54533
1.53	4.55059
1.54	4.5802
1.55	4.5371
1.56	4.55487
1.57	4.57691
1.58	4.56474
1.59	4.55191
1.6	4.57526
1.61	4.55947
1.62	4.56309
1.63	4.54829
1.64	4.53644
1.65	4.57625
1.66	4.57987
1.67	4.54566
1.68	4.54072
1.69	4.54697
1.7	4.57066
1.71	4.57691
1.72	4.5348
1.73	4.57855
1.74	4.55849
1.75	4.51276
1.76	4.53546
1.77	4.56408
1.78	4.53217
1.79	4.5575
1.8	4.56112
1.81	4.61474
1.82	4.55849
1.83	4.5677
1.84	4.53612
1.85	4.56342
1.86	4.57066
1.87	4.55125
1.88	4.54072
1.89	4.495
1.9	4.55881
1.91	4.54105
1.92	4.55092
1.93	4.54434
1.94	4.52362
1.95	4.52
1.96	4.48151
1.97	4.51671
1.98	4.49763
1.99	4.54401
2	4.52296
2.01	4.5121
2.02	4.49927
2.03	4.50158
2.04	4.52526
2.05	4.51671
2.06	4.51704
2.07	4.54368
2.08	4.49039
2.09	4.54006
2.1	4.50651
2.11	4.53316
2.12	4.51309
2.13	4.49829
2.14	4.4973
2.15	4.52526
2.16	4.54401
2.17	4.51079
2.18	4.50421
2.19	4.495
2.2	4.48513
2.21	4.49533
2.22	4.50454
2.23	4.49664
2.24	4.52822
2.25	4.49302
2.26	4.53743
2.27	4.4996
2.28	4.48579
2.29	4.51934
2.3	4.45947
2.31	4.47296
2.32	4.53546
2.33	4.48809
2.34	4.46901
2.35	4.55717
2.36	4.51144
2.37	4.47361
2.38	4.5371
2.39	4.50421
2.4	4.47986
2.41	4.47164
2.42	4.47954
2.43	4.52
2.44	4.50717
2.45	4.51276
2.46	4.52559
2.47	4.52065
2.48	4.51309
2.49	4.50355
2.5	4.49072
2.51	4.44664
2.52	4.44236
2.53	4.49829
2.54	4.5223
2.55	4.48677
2.56	4.47954
2.57	4.47888
2.58	4.49204
2.59	4.49565
2.6	4.45157
2.61	4.45947
2.62	4.48677
2.63	4.46407
2.64	4.47822
2.65	4.45486
2.66	4.4746
2.67	4.45092
2.68	4.48644
2.69	4.47394
2.7	4.44434
2.71	4.4769
2.72	4.48513
2.73	4.45486
2.74	4.48348
2.75	4.47954
2.76	4.47493
2.77	4.45684
2.78	4.45223
2.79	4.4621
2.8	4.45815
2.81	4.44401
2.82	4.45651
2.83	4.49533
2.84	4.46835
2.85	4.45124
2.86	4.42526
2.87	4.42822
2.88	4.48118
2.89	4.47263
2.9	4.40881
2.91	4.39006
2.92	4.43414
2.93	4.44697
2.94	4.43282
2.95	4.46046
2.96	4.43282
2.97	4.41243
2.98	4.44763
2.99	4.44434
3	4.45388
3.01	4.44236
3.02	4.40387
3.03	4.41045
3.04	4.48611
3.05	4.42822
3.06	4.46473
3.07	4.44993
3.08	4.43611
3.09	4.38249
3.1	4.4269
3.11	4.3996
3.12	4.41703
3.13	4.43249
3.14	4.45289
3.15	4.43052
3.16	4.42263
3.17	4.44598
3.18	4.43842
3.19	4.41999
3.2	4.44796
3.21	4.38512
3.22	4.40223
3.23	4.4098
3.24	4.41374
3.25	4.40124
3.26	4.44927
3.27	4.43907
3.28	4.3996
3.29	4.42361
3.3	4.42756
3.31	4.38611
3.32	4.40091
3.33	4.42361
3.34	4.38447
3.35	4.44072
3.36	4.42065
3.37	4.39401
3.38	4.39302
3.39	4.44072
3.4	4.42427
3.41	4.41934
3.42	4.40519
3.43	4.40716
3.44	4.38644
3.45	4.39137
3.46	4.4042
3.47	4.3769
3.48	4.41078
3.49	4.39302
3.5	4.38907
3.51	4.38545
3.52	4.41309
3.53	4.4019
3.54	4.41341
3.55	4.39631
3.56	4.37361
3.57	4.38677
3.58	4.38808
3.59	4.38874
3.6	4.38183
3.61	4.38414
3.62	4.4292
3.63	4.42657
3.64	4.38085
3.65	4.3848
3.66	4.41901
3.67	4.39269
3.68	4.38183
3.69	4.38874
3.7	4.40815
3.71	4.48118
3.72	4.42164
3.73	4.3894
3.74	4.37262
3.75	4.40289
3.76	4.41177
3.77	4.42493
3.78	4.41572
3.79	4.38447
3.8	4.38282
3.81	4.39664
3.82	4.40651
3.83	4.35387
3.84	4.41243
3.85	4.41901
3.86	4.45256
3.87	4.38447
3.88	4.38611
3.89	4.41605
3.9	4.38973
3.91	4.36868
3.92	4.35486
3.93	4.37953
3.94	4.40519
3.95	4.36407
3.96	4.3792
3.97	4.36144
3.98	4.36604
3.99	4.36539
4	4.37723
4.01	4.39401
4.02	4.3769
4.03	4.36637
4.04	4.35256
4.05	4.33249
4.06	4.37756
4.07	4.37822
4.08	4.38907
4.09	4.38216
4.1	4.42657
4.11	4.3621
4.12	4.36374
4.13	4.35519
4.14	4.38743
4.15	4.36012
4.16	4.38019
4.17	4.38052
4.18	4.34927
4.19	4.37657
4.2	4.35979
4.21	4.36177
4.22	4.35322
4.23	4.37723
4.24	4.3973
4.25	4.35058
4.26	4.36637
4.27	4.3519
4.28	4.36407
4.29	4.37361
4.3	4.34433
4.31	4.35552
4.32	4.36802
4.33	4.37098
4.34	4.32591
4.35	4.34927
4.36	4.32789
4.37	4.34532
4.38	4.37361
4.39	4.37361
4.4	4.36868
4.41	4.3394
4.42	4.3542
4.43	4.33775
4.44	4.34039
4.45	4.34861
4.46	4.36539
4.47	4.37361
4.48	4.34499
4.49	4.34729
4.5	4.35453
4.51	4.31012
4.52	4.31703
4.53	4.32427
4.54	4.29499
4.55	4.34795
4.56	4.36308
4.57	4.36111
4.58	4.33874
4.59	4.37032
4.6	4.35881
4.61	4.32953
4.62	4.35486
4.63	4.33611
4.64	4.31802
4.65	4.3121
4.66	4.34894
4.67	4.3371
4.68	4.33348
4.69	4.33183
4.7	4.31242
4.71	4.3042
4.72	4.33381
4.73	4.344
4.74	4.37591
4.75	4.33841
4.76	4.32953
4.77	4.32756
4.78	4.34927
4.79	4.29631
4.8	4.32854
4.81	4.30124
4.82	4.32756
4.83	4.29499
4.84	4.31473
4.85	4.33414
4.86	4.30354
4.87	4.27756
4.88	4.32196
4.89	4.33282
4.9	4.34499
4.91	4.3519
4.92	4.30288
4.93	4.32164
4.94	4.32525
4.95	4.31473
4.96	4.28117
4.97	4.30683
4.98	4.29795
4.99	4.31045
5	4.30387
5.01	4.29631
5.02	4.32657
5.03	4.28644
5.04	4.28611
5.05	4.28874
5.06	4.28413
5.07	4.31473
5.08	4.27624
5.09	4.3042
5.1	4.29729
5.11	4.27558
5.12	4.29137
5.13	4.33841
5.14	4.27459
5.15	4.33808
5.16	4.32493
5.17	4.31275
5.18	4.31473
5.19	4.28117
5.2	4.29335
5.21	4.31078
5.22	4.31637
5.23	4.30519
5.24	4.33085
5.25	4.31012
5.26	4.32657
5.27	4.29302
5.28	4.28578
5.29	4.27756
5.3	4.31835
5.31	4.30585
5.32	4.2713
5.33	4.27459
5.34	4.27163
5.35	4.28315
5.36	4.30914
5.37	4.28677
5.38	4.25552
5.39	4.29598
5.4	4.26374
5.41	4.27098
5.42	4.30914
5.43	4.29367
5.44	4.2519
5.45	4.28775
5.46	4.2792
5.47	4.29466
5.48	4.27854
5.49	4.3371
5.5	4.29104
5.51	4.3121
5.52	4.28216
5.53	4.2463
5.54	4.2417
5.55	4.26966
5.56	4.269
5.57	4.24729
5.58	4.23249
5.59	4.30321
5.6	4.29466
5.61	4.26242
5.62	4.28578
5.63	4.27788
5.64	4.25354
5.65	4.31933
5.66	4.29335
5.67	4.26604
5.68	4.29203
5.69	4.24137
5.7	4.26407
5.71	4.24137
5.72	4.2565
5.73	4.26341
5.74	4.24828
5.75	4.26111
5.76	4.27492
5.77	4.26999
5.78	4.29598
5.79	4.29499
5.8	4.24367
5.81	4.26144
5.82	4.22722
5.83	4.23808
5.84	4.28446
5.85	4.27986
5.86	4.26078
5.87	4.24992
5.88	4.23874
5.89	4.23512
5.9	4.26538
5.91	4.23216
5.92	4.24203
5.93	4.27065
5.94	4.25913
5.95	4.24894
5.96	4.219
5.97	4.20683
5.98	4.25584
5.99	4.24861
6	4.27328
6.01	4.27459
6.02	4.27328
6.03	4.26802
6.04	4.2269
6.05	4.22755
6.06	4.23249
6.07	4.25683
6.08	4.26999
6.09	4.24334
6.1	4.23611
6.11	4.27525
6.12	4.27525
6.13	4.24959
6.14	4.28052
6.15	4.27657
6.16	4.26045
6.17	4.26933
6.18	4.25157
6.19	4.27295
6.2	4.24762
6.21	4.27558
6.22	4.24926
6.23	4.24071
6.24	4.2338
6.25	4.2338
6.26	4.24367
6.27	4.2565
6.28	4.23249
6.29	4.2417
6.3	4.26012
6.31	4.24762
6.32	4.22722
6.33	4.20683
6.34	4.2213
6.35	4.23479
6.36	4.22755
6.37	4.23742
6.38	4.23019
6.39	4.269
6.4	4.2144
6.41	4.20913
6.42	4.21933
6.43	4.25716
6.44	4.19762
6.45	4.17689
6.46	4.22361
6.47	4.26374
6.48	4.22722
6.49	4.21341
6.5	4.24203
6.51	4.22788
6.52	4.19532
6.53	4.21736
6.54	4.219
6.55	4.21078
6.56	4.22558
6.57	4.20946
6.58	4.22854
6.59	4.21966
6.6	4.23644
6.61	4.2213
6.62	4.18775
6.63	4.22328
6.64	4.1861
6.65	4.20091
6.66	4.22624
6.67	4.23216
6.68	4.23676
6.69	4.21736
6.7	4.22887
6.71	4.25387
6.72	4.2292
6.73	4.23084
6.74	4.219
6.75	4.24104
6.76	4.2519
6.77	4.2644
6.78	4.23578
6.79	4.23907
6.8	4.2065
6.81	4.18874
6.82	4.20913
6.83	4.24301
6.84	4.22229
6.85	4.19334
6.86	4.22492
6.87	4.21407
6.88	4.21604
6.89	4.24071
6.9	4.21341
6.91	4.21637
6.92	4.19893
6.93	4.21143
6.94	4.19795
6.95	4.17755
6.96	4.21768
6.97	4.26604
6.98	4.23183
6.99	4.20486
7	4.16341
7.01	4.19433
7.02	4.21012
7.03	4.19433
7.04	4.22196
7.05	4.19564
7.06	4.1917
7.07	4.20288
7.08	4.23578
7.09	4.20683
7.1	4.19762
7.11	4.24828
7.12	4.16308
7.13	4.18051
7.14	4.21933
7.15	4.2167
7.16	4.20815
7.17	4.24236
7.18	4.17953
7.19	4.25848
7.2	4.20979
7.21	4.22854
7.22	4.20782
7.23	4.23709
7.24	4.20815
7.25	4.17657
7.26	4.18972
7.27	4.21604
7.28	4.18939
7.29	4.20486
7.3	4.19795
7.31	4.19433
7.32	4.18808
7.33	4.15222
7.34	4.16867
7.35	4.18512
7.36	4.1713
7.37	4.2213
7.38	4.19071
7.39	4.19959
7.4	4.16571
7.41	4.17426
7.42	4.21374
7.43	4.194
7.44	4.19893
7.45	4.16078
7.46	4.21078
7.47	4.18413
7.48	4.16176
7.49	4.1917
7.5	4.15946
7.51	4.19663
7.52	4.20815
7.53	4.18479
7.54	4.20913
7.55	4.17064
7.56	4.17854
7.57	4.20025
7.58	4.16834
7.59	4.19861
7.6	4.22361
7.61	4.219
7.62	4.16768
7.63	4.19137
7.64	4.20288
7.65	4.20782
7.66	4.19137
7.67	4.17393
7.68	4.19005
7.69	4.22624
7.7	4.19005
7.71	4.18282
7.72	4.16209
7.73	4.20157
7.74	4.15222
7.75	4.14696
7.76	4.19203
7.77	4.17788
7.78	4.17788
7.79	4.20222
7.8	4.15091
7.81	4.17196
7.82	4.15058
7.83	4.16308
7.84	4.15189
7.85	4.18347
7.86	4.19005
7.87	4.16209
7.88	4.14992
7.89	4.1542
7.9	4.17097
7.91	4.18841
7.92	4.16406
7.93	4.14564
7.94	4.18216
7.95	4.17459
7.96	4.1588
7.97	4.18117
7.98	4.16604
7.99	4.15518
8	4.18347
8.01	4.18939
8.02	4.1486
8.03	4.14696
8.04	4.1542
8.05	4.15124
8.06	4.16341
8.07	4.14104
8.08	4.16012
8.09	4.12229
8.1	4.11867
8.11	4.18742
8.12	4.13742
8.13	4.11373
8.14	4.1611
8.15	4.17262
8.16	4.15025
8.17	4.18282
8.18	4.20321
8.19	4.14729
8.2	4.16275
8.21	4.14992
8.22	4.17689
8.23	4.15222
8.24	4.10288
8.25	4.13347
8.26	4.16012
8.27	4.1611
8.28	4.16768
8.29	4.12854
8.3	4.14663
8.31	4.19893
8.32	4.20124
8.33	4.16867
8.34	4.14301
8.35	4.16176
8.36	4.16209
8.37	4.16045
8.38	4.13183
8.39	4.11077
8.4	4.14071
8.41	4.12887
8.42	4.13413
8.43	4.1917
8.44	4.19236
8.45	4.16834
8.46	4.13216
8.47	4.10617
8.48	4.144
8.49	4.15255
8.5	4.15222
8.51	4.169
8.52	4.1542
8.53	4.13117
8.54	4.13972
8.55	4.13643
8.56	4.17163
8.57	4.17295
8.58	4.1736
8.59	4.18282
8.6	4.16637
8.61	4.14433
8.62	4.11768
8.63	4.12393
8.64	4.11801
8.65	4.14696
8.66	4.15847
8.67	4.15518
8.68	4.12064
8.69	4.17393
8.7	4.14926
8.71	4.11669
8.72	4.11472
8.73	4.11275
8.74	4.16966
8.75	4.1611
8.76	4.13808
8.77	4.12426
8.78	4.13413
8.79	4.14433
8.8	4.12558
8.81	4.1542
8.82	4.1361
8.83	4.16571
8.84	4.10979
8.85	4.1236
8.86	4.12031
8.87	4.15124
8.88	4.14499
8.89	4.17459
8.9	4.12295
8.91	4.1361
8.92	4.13281
8.93	4.1111
8.94	4.1315
8.95	4.15124
8.96	4.14071
8.97	4.12591
8.98	4.11176
8.99	4.09992
9	4.14071
9.01	4.13018
9.02	4.16045
9.03	4.12295
9.04	4.12163
9.05	4.14499
9.06	4.16341
9.07	4.17985
9.08	4.16933
9.09	4.12952
9.1	4.15518
9.11	4.14301
9.12	4.1315
9.13	4.13577
9.14	4.15222
9.15	4.1292
9.16	4.12229
9.17	4.10979
9.18	4.13347
9.19	4.12821
9.2	4.12525
9.21	4.13314
9.22	4.11998
9.23	4.10748
9.24	4.1236
9.25	4.15255
9.26	4.1417
9.27	4.08676
9.28	4.10748
9.29	4.14696
9.3	4.11538
9.31	4.11012
9.32	4.12393
9.33	4.14104
9.34	4.09794
9.35	4.08577
9.36	4.12393
9.37	4.10518
9.38	4.06242
9.39	4.11077
9.4	4.1065
9.41	4.094
9.42	4.08577
9.43	4.13939
9.44	4.13084
9.45	4.07821
9.46	4.119
9.47	4.09597
9.48	4.08873
9.49	4.07854
9.5	4.08051
9.51	4.1292
9.52	4.11669
9.53	4.13018
9.54	4.09597
9.55	4.14334
9.56	4.0861
9.57	4.14959
9.58	4.12952
9.59	4.15946
9.6	4.11209
9.61	4.14959
9.62	4.12854
9.63	4.09038
9.64	4.0986
9.65	4.07722
9.66	4.09893
9.67	4.06307
9.68	4.08577
9.69	4.12163
9.7	4.08446
9.71	4.11242
9.72	4.10814
9.73	4.09433
9.74	4.10617
9.75	4.13347
9.76	4.11505
9.77	4.12196
9.78	4.11966
9.79	4.10058
9.8	4.08906
9.81	4.12722
9.82	4.11439
9.83	4.10518
9.84	4.07821
9.85	4.10452
9.86	4.09992
9.87	4.09729
9.88	4.14367
9.89	4.13248
9.9	4.12196
9.91	4.13347
9.92	4.11834
9.93	4.094
9.94	4.15814
9.95	4.10156
9.96	4.12459
9.97	4.12689
9.98	4.04794
9.99	4.11373
10	4.12854
10.01	4.07952
10.02	4.07393
10.03	4.11044
10.04	4.10288
10.05	4.09433
10.06	4.09893
10.07	4.10814
10.08	4.10288
10.09	4.10354
10.1	4.0963
10.11	4.07788
10.12	4.09794
10.13	4.10716
10.14	4.11012
10.15	4.09465
10.16	4.11505
10.17	4.11143
10.18	4.12393
10.19	4.14005
10.2	4.08084
10.21	4.08511
10.22	4.0634
10.23	4.10584
10.24	4.10025
10.25	4.12031
10.26	4.04761
10.27	4.13775
10.28	4.1088
10.29	4.11538
10.3	4.03051
10.31	4.05288
10.32	4.10058
10.33	4.09038
10.34	4.09827
10.35	4.07492
10.36	4.08479
10.37	4.09202
10.38	4.08018
10.39	4.10551
10.4	4.11669
10.41	4.06965
10.42	4.07886
10.43	4.12492
10.44	4.10288
10.45	4.11341
10.46	4.09564
10.47	4.11538
10.48	4.07031
10.49	4.09071
10.5	4.07952
10.51	4.06801
10.52	4.06505
10.53	4.07196
10.54	4.07558
10.55	4.0986
10.56	4.13512
10.57	4.10551
10.58	4.06604
10.59	4.04827
10.6	4.06768
10.61	4.05321
10.62	4.07196
10.63	4.1111
10.64	4.07196
10.65	4.069
10.66	4.10847
10.67	4.0486
10.68	4.09498
10.69	4.10913
10.7	4.11505
10.71	4.08742
10.72	4.11702
10.73	4.11604
10.74	4.09465
10.75	4.07919
10.76	4.07886
10.77	4.07426
10.78	4.05189
10.79	4.06801
10.8	4.08577
10.81	4.1111
10.82	4.11077
10.83	4.10683
10.84	4.11637
10.85	4.07163
10.86	4.05189
10.87	4.0588
10.88	4.08479
10.89	4.09071
10.9	4.08577
10.91	4.0634
10.92	4.06275
10.93	4.08347
10.94	4.10387
10.95	4.07031
10.96	4.07985
10.97	4.05485
10.98	4.0861
10.99	4.06834
11	4.07656
11.01	4.03906
11.02	4.04696
11.03	4.07689
11.04	4.04071
11.05	4.044
11.06	4.05419
11.07	4.05518
11.08	4.09235
11.09	4.11242
11.1	4.10518
11.11	4.0713
11.12	4.04005
11.13	4.08676
11.14	4.05222
11.15	4.04038
11.16	4.07755
11.17	4.08775
11.18	4.0588
11.19	4.0884
11.2	4.0884
11.21	4.04169
11.22	4.06307
11.23	4.05386
11.24	4.07163
11.25	4.06867
11.26	4.09038
11.27	4.06998
11.28	4.06932
11.29	4.08511
11.3	4.07886
11.31	4.07031
11.32	4.10913
11.33	4.09498
11.34	4.11637
11.35	4.05485
11.36	4.08643
11.37	4.05584
11.38	4.06604
11.39	4.03577
11.4	4.04301
11.41	4.01702
11.42	4.01603
11.43	4.05979
11.44	4.03643
11.45	4.0486
11.46	4.05025
11.47	4.03643
11.48	4.05419
11.49	4.05551
11.5	4.07854
11.51	4.0565
11.52	4.04268
11.53	4.03774
11.54	4.08709
11.55	4.06867
11.56	4.08446
11.57	4.0736
11.58	4.08084
11.59	4.03873
11.6	4.08084
11.61	4.06176
11.62	4.06932
11.63	4.08215
11.64	4.05682
11.65	4.09038
11.66	4.0736
11.67	4.01505
11.68	4.03906
11.69	4.07426
11.7	4.03051
11.71	4.0509
11.72	4.06044
11.73	4.0338
11.74	4.04432
11.75	4.07294
11.76	4.02064
11.77	4.04038
11.78	4.01932
11.79	4.044
11.8	4.04959
11.81	4.07821
11.82	4.04926
11.83	4.04992
11.84	4.08643
11.85	4.09071
11.86	4.05189
11.87	4.05913
11.88	4.04959
11.89	3.99597
11.9	4.03347
11.91	4.04597
11.92	4.07558
11.93	4.02623
11.94	4.06768
11.95	4.10485
11.96	4.06636
11.97	4.02952
11.98	4.03774
11.99	4.07886
12	4.02821
12.01	4.00584
12.02	4.03281
12.03	4.04334
12.04	4.05715
12.05	4.06735
12.06	4.06406
12.07	4.0815
12.08	4.06439
12.09	4.06209
12.1	4.04071
12.11	4.04268
12.12	4.0338
12.13	4.04992
12.14	4.04367
12.15	4.044
12.16	4.01965
12.17	4.04367
12.18	4.06669
12.19	4.08413
12.2	4.02228
12.21	4.05353
12.22	4.06143
12.23	4.06834
12.24	4.03084
12.25	4.04564
12.26	4.06439
12.27	4.06965
12.28	4.09104
12.29	4.03939
12.3	4.07821
12.31	4.0815
12.32	4.06538
12.33	4.05321
12.34	4.02755
12.35	4.08347
12.36	4.06669
12.37	4.01538
12.38	4.04038
12.39	4.01011
12.4	4.03084
12.41	4.05584
12.42	4.02557
12.43	4.06077
12.44	4.06307
12.45	4.04169
12.46	4.0486
12.47	4.06209
12.48	4.02524
12.49	4.05847
12.5	4.04597
12.51	4.02656
12.52	4.04136
12.53	4.07097
12.54	4.05255
12.55	4.08084
12.56	4.05814
12.57	4.03018
12.58	4.03709
12.59	4.03807
12.6	4.03511
12.61	4.04531
12.62	4.04367
12.63	4.04071
12.64	4.05748
12.65	4.04367
12.66	4.06307
12.67	4.05715
12.68	4.01735
12.69	4.04663
12.7	4.02755
12.71	4.05123
12.72	4.02524
12.73	4.04136
12.74	4.04268
12.75	4.07788
12.76	4.04005
12.77	4.02228
12.78	4.0588
12.79	4.02623
12.8	4.02031
12.81	4.04663
12.82	4.08939
12.83	4.06439
12.84	4.04334
12.85	4.05715
12.86	4.08577
12.87	4.07821
12.88	4.05617
12.89	4.03314
12.9	4.05057
12.91	4.0463
12.92	4.04103
12.93	4.01932
12.94	4.06275
12.95	4.06044
12.96	4.04498
12.97	4.02459
12.98	4.04794
12.99	4.02985
13	4.06702
13.01	4.08577
13.02	4.05025
13.03	4.03939
13.04	4.03939
13.05	4.069
13.06	4.02097
13.07	3.99761
13.08	4.01998
13.09	4.02492
13.1	4.01834
13.11	4.03709
13.12	4.03149
13.13	4.06275
13.14	4.02952
13.15	4.05715
13.16	4.044
13.17	3.98939
13.18	4.01143
13.19	4.07163
13.2	4.05386
13.21	3.9838
13.22	4.01538
13.23	4.00518
13.24	4.01834
13.25	4.07294
13.26	4.05518
13.27	4.01867
13.28	4.04235
13.29	4.05255
13.3	4.06242
13.31	4.02163
13.32	4.03281
13.33	4.05123
13.34	4.03807
13.35	4.02656
13.36	4.06406
13.37	4.069
13.38	4.06834
13.39	4.02985
13.4	4.04334
13.41	4.07492
13.42	4.05386
13.43	4.07327
13.44	4.02097
13.45	3.99465
13.46	4.03873
13.47	4.06209
13.48	4.03939
13.49	4.00781
13.5	4.08314
13.51	4.05748
13.52	4.06669
13.53	4.04432
13.54	4.04794
13.55	4.06636
13.56	4.04367
13.57	4.02557
13.58	4.00913
13.59	3.98774
13.6	4.01011
13.61	4.0236
13.62	4.02623
13.63	4.06209
13.64	4.03248
13.65	4.03182
13.66	4.03314
13.67	4.0259
13.68	4.01505
13.69	4.03117
13.7	4.02853
13.71	4.03018
13.72	4.02557
13.73	4.03446
13.74	4.05386
13.75	4.05057
13.76	3.99268
13.77	4.00353
13.78	4.04071
13.79	4.00814
13.8	4.03939
13.81	4.05419
13.82	4.02163
13.83	4.01603
13.84	3.99663
13.85	3.99038
13.86	4.05485
13.87	4.01307
13.88	4.01143
13.89	4.0361
13.9	3.97689
13.91	4.01603
13.92	4.00748
13.93	4.02722
13.94	4.01702
13.95	4.02919
13.96	4.03446
13.97	4.0713
13.98	4.03544
13.99	3.9963
14	4.01307
14.01	4.02919
14.02	4.03676
14.03	4.04465
14.04	3.99202
14.05	4.02689
14.06	4.03742
14.07	4.01077
14.08	4.01011
14.09	4.05025
14.1	4.03709
14.11	4.01307
14.12	4.01867
14.13	4.03676
14.14	4.00222
14.15	4.03807
14.16	4.01044
14.17	4.00386
14.18	4.01472
14.19	4.04696
14.2	4.00485
14.21	4.03314
14.22	4.01538
14.23	4.04728
14.24	4.0157
14.25	4.03149
14.26	4.05551
14.27	4.0463
14.28	4.0236
14.29	4.01209
14.3	4.0259
14.31	4.02163
14.32	4.04663
14.33	4.03709
14.34	3.9861
14.35	3.99761
14.36	4.01965
14.37	3.98248
14.38	4.00616
14.39	4.03873
14.4	4.03149
14.41	4.04498
14.42	4.03248
14.43	4.03511
14.44	4.0157
14.45	3.98445
14.46	3.9963
14.47	4.03314
14.48	3.97985
14.49	3.96373
14.5	4.0338
14.51	4.00551
14.52	4.00913
14.53	3.98051
14.54	4.00978
14.55	4.00748
14.56	4.02327
14.57	4.01932
14.58	4.03413
14.59	4.02821
14.6	4.00781
14.61	4.03149
14.62	4.01834
14.63	4.03248
14.64	4.03182
14.65	4.00978
14.66	4.01274
14.67	4.01011
14.68	4.01011
14.69	4.01965
14.7	4.00715
14.71	3.99301
14.72	3.99893
14.73	4.00847
14.74	4.03511
14.75	4.00945
14.76	4.00584
14.77	4.0509
14.78	4.03544
14.79	3.98807
14.8	4.01143
14.81	3.99399
14.82	4.03281
14.83	4.03215
14.84	4.02524
14.85	4.04926
14.86	4.0157
14.87	3.99794
14.88	4.00649
14.89	3.99728
14.9	3.98248
14.91	4.02689
14.92	3.99597
14.93	4.00156
14.94	4.01077
14.95	4.02853
14.96	4.04235
14.97	4.03117
14.98	4.01636
14.99	4.04827
15	3.9838
15.01	4.01143
15.02	3.99893
15.03	3.98709
15.04	4.0088
15.05	4.04103
15.06	4.04005
15.07	3.96537
15.08	3.96702
15.09	3.98774
15.1	3.99991
15.11	4.01143
15.12	4.00419
15.13	4.01472
15.14	4.04498
15.15	4.03248
15.16	4.02163
15.17	4.02524
15.18	4.01176
15.19	4.02426
15.2	4.05781
15.21	4.0338
15.22	3.9861
15.23	3.99695
15.24	4.00386
15.25	4.01406
15.26	3.98412
15.27	3.98182
15.28	4.01373
15.29	4.02459
15.3	4.03873
15.31	3.98577
15.32	4.02557
15.33	4.01373
15.34	4.04202
15.35	3.9986
15.36	4.01011
15.37	3.99169
15.38	4.02031
15.39	4.01274
15.4	4.01373
15.41	4.04794
15.42	4.00123
15.43	3.99301
15.44	4.00518
15.45	4.00353
15.46	4.0134
15.47	4.00781
15.48	3.99498
15.49	3.96866
15.5	3.98807
15.51	4.01932
15.52	3.99038
15.53	3.98182
15.54	3.98215
15.55	4.00386
15.56	4.04071
15.57	4.03906
15.58	4.00748
15.59	4.00847
15.6	3.9963
15.61	4.04597
15.62	4.03511
15.63	4.01209
15.64	4.01932
15.65	4.04136
15.66	4.00123
15.67	4.01209
15.68	4.02097
15.69	3.99498
15.7	3.99663
15.71	3.98347
15.72	3.97557
15.73	4.00419
15.74	3.99564
15.75	4.00485
15.76	3.99038
15.77	3.99169
15.78	3.9861
15.79	3.99268
15.8	4.01209
15.81	3.99827
15.82	4.03511
15.83	4.01406
15.84	4.00156
15.85	3.99695
15.86	4.01143
15.87	3.99465
15.88	4.00024
15.89	3.9884
15.9	4.02821
15.91	3.9861
15.92	4.00748
15.93	3.99695
15.94	4.00156
15.95	3.99827
15.96	4.00222
15.97	4.0134
15.98	3.98643
15.99	4.01472
16	3.99334
16.01	3.9838
16.02	4.0157
16.03	4.01307
16.04	3.98445
16.05	4.00781
16.06	4.0088
16.07	4.01439
16.08	3.99038
16.09	3.9759
16.1	3.95748
16.11	3.97459
16.12	4.02524
16.13	4.01801
16.14	3.98149
16.15	3.95452
16.16	4.0236
16.17	4.00616
16.18	3.94301
16.19	3.99991
16.2	4.0009
16.21	3.99334
16.22	4.0009
16.23	3.99663
16.24	3.99169
16.25	4.02327
16.26	4.02327
16.27	3.99103
16.28	3.96965
16.29	4.00715
16.3	4.01373
16.31	3.99268
16.32	3.99597
16.33	4.02327
16.34	3.98643
16.35	3.98676
16.36	3.99695
16.37	4.03084
16.38	3.99268
16.39	4.04005
16.4	4.00419
16.41	3.99695
16.42	3.98051
16.43	3.98939
16.44	3.98511
16.45	3.9986
16.46	3.98676
16.47	3.96833
16.48	4.00781
16.49	3.96801
16.5	3.9986
16.51	3.99169
16.52	3.94629
16.53	3.97722
16.54	3.97228
16.55	3.9611
16.56	3.96044
16.57	3.99235
16.58	4.02426
16.59	3.99268
16.6	3.98314
16.61	3.97327
16.62	3.99663
16.63	4.00485
16.64	4.00353
16.65	3.9986
16.66	3.9657
16.67	3.97064
16.68	3.98577
16.69	3.98873
16.7	3.97722
16.71	3.98116
16.72	3.96998
16.73	3.9782
16.74	3.95254
16.75	3.98215
16.76	4.00024
16.77	4.02163
16.78	3.97393
16.79	3.99268
16.8	4.00584
16.81	3.97228
16.82	3.9838
16.83	4.0009
16.84	3.98577
16.85	3.98314
16.86	3.9407
16.87	3.99991
16.88	3.99038
16.89	3.96176
16.9	4.01274
16.91	4.02722
16.92	3.99432
16.93	3.98939
16.94	3.95419
16.95	3.96472
16.96	3.9907
16.97	3.99794
16.98	3.99761
16.99	3.99301
17	3.98676
17.01	3.99202
17.02	3.9838
17.03	4.01636
17.04	4.03577
17.05	3.99761
17.06	4.00649
17.07	4.00715
17.08	3.96044
17.09	3.97557
17.1	3.96176
17.11	3.98084
17.12	3.9861
17.13	3.98972
17.14	3.99202
17.15	4.00485
17.16	3.99268
17.17	4.00748
17.18	3.94728
17.19	3.98972
17.2	3.96472
17.21	3.94498
17.22	3.97557
17.23	4.00847
17.24	4.01636
17.25	3.9884
17.26	4.0236
17.27	3.99728
17.28	4.02557
17.29	4.03051
17.3	3.99465
17.31	3.9907
17.32	3.98972
17.33	3.97524
17.34	3.98972
17.35	4.01242
17.36	4.01472
17.37	3.97985
17.38	3.95649
17.39	3.98676
17.4	4.00288
17.41	3.98577
17.42	3.97228
17.43	3.96472
17.44	3.99959
17.45	3.99959
17.46	3.98807
17.47	3.99893
17.48	3.98051
17.49	4.0032
17.5	3.9532
17.51	3.96472
17.52	4.00781
17.53	3.98182
17.54	3.96768
17.55	3.99235
17.56	3.96669
17.57	3.96899
17.58	3.9986
17.59	3.98478
17.6	3.96406
17.61	3.96505
17.62	3.97327
17.63	4.0134
17.64	3.96768
17.65	3.97064
17.66	3.97557
17.67	3.97426
17.68	3.9884
17.69	4.01209
17.7	3.99597
17.71	4.00518
17.72	3.97623
17.73	3.96702
17.74	3.9907
17.75	3.98676
17.76	3.99728
17.77	3.99531
17.78	4.00386
17.79	3.95649
17.8	3.98215
17.81	3.95978
17.82	3.98215
17.83	3.99695
17.84	3.95287
17.85	3.98314
17.86	3.96866
17.87	3.97755
17.88	3.9588
17.89	3.97722
17.9	3.97787
17.91	3.98182
17.92	3.94498
17.93	3.95748
17.94	3.94893
17.95	3.96406
17.96	3.98939
17.97	3.94926
17.98	4.03643
17.99	3.99959
18	3.94498
18.01	3.98248
18.02	3.97886
18.03	3.98281
18.04	3.96833
18.05	3.94827
18.06	3.94991
18.07	3.95945
18.08	3.98347
18.09	3.97952
18.1	3.95781
18.11	3.96866
18.12	3.98182
18.13	3.97491
18.14	4.00452
18.15	3.99926
18.16	4.00024
18.17	3.9634
18.18	3.9532
18.19	3.97853
18.2	3.96735
18.21	3.99399
18.22	4.00353
18.23	4.00222
18.24	3.97985
18.25	3.98051
18.26	3.95222
18.27	3.98544
18.28	4.01439
18.29	4.02393
18.3	4.01965
18.31	4.00814
18.32	3.99564
18.33	3.95945
18.34	3.99728
18.35	4.04531
18.36	4.02492
18.37	4.01867
18.38	4.0088
18.39	4.01636
18.4	3.9657
18.41	3.98018
18.42	4.02426
18.43	3.98182
18.44	3.96998
18.45	3.97195
18.46	3.94662
18.47	3.96932
18.48	3.99202
18.49	3.96472
18.5	4.00057
18.51	4.0111
18.52	3.98906
18.53	3.97919
18.54	3.96208
18.55	3.9963
18.56	3.94926
18.57	3.96373
18.58	3.9782
18.59	3.99235
18.6	3.94301
18.61	3.95912
18.62	3.97327
18.63	3.98347
18.64	4.0009
18.65	3.99498
18.66	3.99366
18.67	3.98149
18.68	3.98314
18.69	3.9713
18.7	3.9986
18.71	3.98873
18.72	3.98116
18.73	3.97524
18.74	3.97623
18.75	3.98445
18.76	3.91143
18.77	3.96406
18.78	3.94827
18.79	3.96307
18.8	3.97689
18.81	3.98741
18.82	3.98445
18.83	3.96241
18.84	3.98511
18.85	3.98215
18.86	3.96176
18.87	3.94432
18.88	3.9361
18.89	4.00616
18.9	3.98215
18.91	4.00649
18.92	3.95583
18.93	3.98281
18.94	3.99301
18.95	3.97557
18.96	3.9736
18.97	3.98939
18.98	3.92787
18.99	3.9861
19	3.96044
19.01	3.98248
19.02	3.9782
19.03	3.93972
19.04	3.9055
19.05	3.94004
19.06	3.94629
19.07	3.95847
19.08	3.98149
19.09	3.97064
19.1	3.98676
19.11	3.98676
19.12	3.9907
19.13	3.9611
19.14	3.93577
19.15	3.94432
19.16	3.96702
19.17	3.98281
19.18	3.96537
19.19	3.97853
19.2	3.96176
19.21	3.97064
19.22	3.9634
19.23	3.97985
19.24	3.99465
19.25	3.98972
19.26	3.95583
19.27	3.95419
19.28	3.95254
19.29	3.98182
19.3	4.0032
19.31	4.00386
19.32	3.96044
19.33	3.95551
19.34	3.97623
19.35	3.96702
19.36	3.98248
19.37	3.99465
19.38	3.9963
19.39	3.93445
19.4	3.93939
19.41	3.98116
19.42	3.95616
19.43	3.96833
19.44	3.97919
19.45	3.99959
19.46	3.97853
19.47	3.98807
19.48	3.96176
19.49	3.9634
19.5	3.95518
19.51	3.96505
19.52	3.98741
19.53	3.98182
19.54	3.9713
19.55	3.95978
19.56	3.96274
19.57	3.94169
19.58	3.9532
19.59	3.94728
19.6	3.95649
19.61	3.97393
19.62	3.95287
19.63	4.00057
19.64	4.01242
19.65	3.99663
19.66	3.97755
19.67	3.97097
19.68	3.99038
19.69	3.95353
19.7	3.94728
19.71	3.95156
19.72	3.9963
19.73	3.95189
19.74	3.9407
19.75	3.9384
19.76	3.97393
19.77	3.99268
19.78	3.94564
19.79	3.9782
19.8	3.96505
19.81	3.9486
19.82	3.97919
19.83	3.98807
19.84	3.94597
19.85	3.95649
19.86	3.95057
19.87	3.9634
19.88	3.9907
19.89	3.96143
19.9	3.95222
19.91	3.93807
19.92	3.93939
19.93	3.94366
19.94	3.97689
19.95	4.00156
19.96	3.96044
19.97	3.9759
19.98	3.94136
19.99	3.96439
20	3.95287
20.01	3.96669
20.02	3.95222
20.03	3.9486
20.04	3.96505
20.05	3.95518
20.06	3.94926
20.07	3.98182
20.08	3.94761
20.09	4.01044
20.1	3.99301
20.11	3.93478
20.12	3.95189
20.13	3.96899
20.14	3.98774
20.15	4.00156
20.16	3.95616
20.17	3.96801
20.18	4.00518
20.19	4.0134
20.2	3.97491
20.21	3.9986
20.22	3.97722
20.23	3.93807
20.24	3.918
20.25	3.94531
20.26	3.96307
20.27	3.97853
20.28	3.98347
20.29	3.97689
20.3	3.98544
20.31	3.98051
20.32	3.97557
20.33	3.9736
20.34	3.97919
20.35	3.92623
20.36	3.98445
20.37	3.98478
20.38	3.98774
20.39	3.97393
20.4	3.95649
20.41	3.9736
20.42	3.95123
20.43	3.9736
20.44	3.94761
20.45	3.99202
20.46	4.00419
20.47	3.97886
20.48	3.99202
20.49	3.99301
20.5	3.97722
20.51	3.92096
20.52	3.95287
20.53	3.95616
20.54	3.98314
20.55	3.94037
20.56	3.97064
20.57	3.93643
20.58	3.96965
20.59	3.95847
20.6	3.9611
20.61	3.98018
20.62	3.96998
20.63	3.96439
20.64	3.97623
20.65	3.95024
20.66	3.94465
20.67	3.94169
20.68	3.97755
20.69	3.99169
20.7	3.98347
20.71	3.9509
20.72	3.97327
20.73	3.95814
20.74	3.97689
20.75	3.96932
20.76	3.99038
20.77	3.97722
20.78	3.96998
20.79	3.93675
20.8	3.93807
20.81	3.96998
20.82	3.93281
20.83	3.95123
20.84	3.97853
20.85	3.98084
20.86	3.95847
20.87	3.93347
20.88	3.97294
20.89	3.9509
20.9	3.95353
20.91	3.98445
20.92	3.97722
20.93	3.96669
20.94	3.97327
20.95	3.92787
20.96	3.94399
20.97	3.98149
20.98	3.98248
20.99	3.98347
21	3.95452
21.01	3.93116
21.02	3.94629
21.03	3.98511
21.04	3.95583
21.05	3.94432
21.06	3.94662
21.07	3.9884
21.08	3.95452
21.09	3.95945
21.1	3.96241
21.11	3.97327
21.12	3.96833
21.13	3.95748
21.14	3.9157
21.15	3.9134
21.16	3.9486
21.17	3.96077
21.18	3.96669
21.19	3.97656
21.2	3.95781
21.21	3.95123
21.22	3.92064
21.23	3.95682
21.24	3.94662
21.25	3.93906
21.26	3.94103
21.27	3.9611
21.28	3.95945
21.29	3.96768
21.3	3.98709
21.31	3.99695
21.32	3.97755
21.33	3.98149
21.34	4.00156
21.35	3.97327
21.36	3.98084
21.37	3.98149
21.38	3.95616
21.39	3.95814
21.4	3.97689
21.41	3.99136
21.42	3.97491
21.43	3.96636
21.44	3.97097
21.45	3.93281
21.46	3.92096
21.47	3.93478
21.48	3.94827
21.49	3.97886
21.5	3.96735
21.51	3.93018
21.52	3.94827
21.53	3.95024
21.54	3.9532
21.55	3.97623
21.56	3.95715
21.57	3.94695
21.58	3.95189
21.59	3.93643
21.6	3.94695
21.61	3.9588
21.62	3.96669
21.63	3.9782
21.64	3.96274
21.65	3.92261
21.66	3.96735
21.67	3.96866
21.68	3.95222
21.69	3.97722
21.7	3.9407
21.71	3.92261
21.72	3.94333
21.73	3.92689
21.74	3.91702
21.75	3.93972
21.76	3.96307
21.77	3.96669
21.78	3.9486
21.79	3.92722
21.8	3.93708
21.81	3.95057
21.82	3.96768
21.83	3.93018
21.84	3.93774
21.85	3.95715
21.86	3.93281
21.87	3.92393
21.88	3.91899
21.89	3.91998
21.9	3.94333
21.91	3.94564
21.92	3.98116
21.93	3.99169
21.94	3.98116
21.95	3.96307
21.96	3.97689
21.97	3.97327
21.98	3.92327
21.99	3.93544
22	3.96505
22.01	3.9782
22.02	3.97919
22.03	3.97426
22.04	3.9486
22.05	3.94926
22.06	3.95649
22.07	3.96669
22.08	3.9713
22.09	3.9588
22.1	3.98116
22.11	3.93281
22.12	3.95748
22.13	3.94004
22.14	3.9486
22.15	3.98084
22.16	3.98807
22.17	3.97853
22.18	3.96406
22.19	3.9407
22.2	3.9259
22.21	3.9282
22.22	4.02426
22.23	4.00945
22.24	3.96439
22.25	3.95452
22.26	3.97195
22.27	3.95649
22.28	3.92393
22.29	3.9407
22.3	3.94465
22.31	3.95419
22.32	3.96406
22.33	3.9532
22.34	3.97031
22.35	3.96636
22.36	3.95254
22.37	3.92853
22.38	3.9588
22.39	3.93149
22.4	3.97722
22.41	3.94597
22.42	3.93544
22.43	3.95057
22.44	3.93741
22.45	3.93939
22.46	3.94465
22.47	3.92129
22.48	3.9407
22.49	3.9486
22.5	3.96603
22.51	3.94301
22.52	3.93708
22.53	3.93511
22.54	3.97294
22.55	3.95715
22.56	3.93675
22.57	3.95748
22.58	3.91143
22.59	3.93248
22.6	3.96241
22.61	3.97327
22.62	3.96143
22.63	3.93906
22.64	3.9713
22.65	3.97952
22.66	3.94695
22.67	3.93675
22.68	3.94333
22.69	3.94268
22.7	3.96176
22.71	3.93149
22.72	3.94432
22.73	3.94432
22.74	3.97426
22.75	3.93215
22.76	3.96998
22.77	3.94564
22.78	3.90485
22.79	3.92656
22.8	3.96636
22.81	3.94958
22.82	3.95254
22.83	3.9588
22.84	3.93248
22.85	3.93116
22.86	3.95912
22.87	3.93412
22.88	3.9713
22.89	3.9532
22.9	3.94991
22.91	3.93149
22.92	3.9782
22.93	3.9532
22.94	3.98939
22.95	3.97327
22.96	3.97787
22.97	3.96406
22.98	3.95583
22.99	3.94926
23	3.95189
23.01	3.94629
23.02	3.94564
23.03	3.96077
23.04	4.00156
23.05	3.9509
23.06	3.94333
23.07	3.95057
23.08	3.95682
23.09	3.95945
23.1	3.94662
23.11	3.95123
23.12	3.91471
23.13	3.96899
23.14	3.95978
23.15	3.91603
23.16	3.95715
23.17	3.97195
23.18	3.9509
23.19	3.91965
23.2	3.91077
23.21	3.93116
23.22	3.93873
23.23	3.94432
23.24	3.93116
23.25	3.92327
23.26	3.96669
23.27	3.96801
23.28	3.93083
23.29	3.95583
23.3	3.94366
23.31	3.94662
23.32	3.93182
23.33	3.91439
23.34	3.93511
23.35	3.95518
23.36	3.94235
23.37	3.96241
23.38	3.98412
23.39	3.94004
23.4	3.91175
23.41	3.92294
23.42	3.9486
23.43	3.96768
23.44	3.96274
23.45	3.91866
23.46	3.91965
23.47	3.91899
23.48	3.91439
23.49	3.94465
23.5	3.95682
23.51	3.94333
23.52	3.94695
23.53	3.97064
23.54	3.94136
23.55	3.96833
23.56	3.95057
23.57	3.93281
23.58	3.93281
23.59	3.93511
23.6	3.94958
23.61	3.92261
23.62	3.95715
23.63	3.95123
23.64	3.93939
23.65	3.97524
23.66	3.94301
23.67	3.95814
23.68	3.94037
23.69	3.91998
23.7	3.9111
23.71	3.92458
23.72	3.9509
23.73	3.97919
23.74	3.94662
23.75	3.93511
23.76	3.96833
23.77	3.95485
23.78	3.92524
23.79	3.93906
23.8	3.96307
23.81	3.91373
23.82	3.96537
23.83	3.9736
23.84	3.96241
23.85	3.95616
23.86	3.9282
23.87	3.94827
23.88	3.96603
23.89	3.94991
23.9	3.92327
23.91	3.92491
23.92	3.94169
23.93	3.94728
23.94	3.90649
23.95	3.91702
23.96	3.96143
23.97	3.93182
23.98	3.9259
23.99	3.92787
24	3.96833
24.01	3.96833
24.02	3.96702
24.03	3.95518
24.04	3.93018
24.05	3.96866
24.06	3.98182
24.07	3.99169
24.08	3.93873
24.09	3.93873
24.1	3.96702
24.11	3.9407
24.12	3.98741
24.13	3.97623
24.14	3.97327
24.15	3.91537
24.16	3.93807
24.17	3.95156
24.18	3.97228
24.19	4.00386
24.2	3.95353
24.21	3.94662
24.22	3.96603
24.23	3.91373
24.24	3.90452
24.25	3.92524
24.26	3.96143
24.27	3.97294
24.28	3.9407
24.29	3.91044
24.3	3.90748
24.31	3.91998
24.32	3.96176
24.33	3.93939
24.34	3.91603
24.35	3.97459
24.36	3.97097
24.37	3.92722
24.38	3.94333
24.39	3.95485
24.4	3.9407
24.41	3.95287
24.42	3.92754
24.43	3.97755
24.44	3.9611
24.45	3.9486
24.46	3.94893
24.47	3.95518
24.48	3.96669
24.49	3.93741
24.5	3.95222
24.51	3.96307
24.52	3.94333
24.53	3.9134
24.54	3.96702
24.55	3.95814
24.56	3.92261
24.57	3.92787
24.58	3.91932
24.59	3.94399
24.6	3.95715
24.61	3.94893
24.62	3.93018
24.63	3.90616
24.64	3.95057
24.65	3.93347
24.66	3.9713
24.67	3.9782
24.68	3.95781
24.69	3.95551
24.7	3.92689
24.71	3.91274
24.72	3.91504
24.73	3.94728
24.74	3.95287
24.75	3.91866
24.76	3.93478
24.77	3.93906
24.78	3.9236
24.79	3.95057
24.8	3.96406
24.81	3.94629
24.82	3.95485
24.83	3.95814
24.84	3.95024
24.85	3.96373
24.86	3.96899
24.87	3.94465
24.88	3.93544
24.89	3.91373
24.9	3.94728
24.91	3.95222
24.92	3.93774
24.93	3.95123
24.94	3.94235
24.95	3.91439
24.96	3.93116
24.97	3.95419
24.98	3.93906
24.99	3.93675
25	3.95748
25.01	3.96241
25.02	3.97195
25.03	3.96603
25.04	3.9305
25.05	3.91636
25.06	3.95254
25.07	3.95353
25.08	3.92952
25.09	3.90386
25.1	3.93741
25.11	3.94728
25.12	3.98084
25.13	3.96044
25.14	3.93544
25.15	3.9236
25.16	3.92096
25.17	3.94268
25.18	3.91241
25.19	3.95353
25.2	3.95419
25.21	3.96274
25.22	3.96801
25.23	3.92985
25.24	3.93083
25.25	3.9611
25.26	3.95156
25.27	3.92458
25.28	3.92195
25.29	3.94432
25.3	3.93182
25.31	3.94103
25.32	3.94366
25.33	3.92195
25.34	3.95452
25.35	3.95912
25.36	3.93412
25.37	3.91965
25.38	3.93248
25.39	3.98314
25.4	3.94235
25.41	3.92787
25.42	3.94564
25.43	3.9236
25.44	3.93445
25.45	3.91669
25.46	3.90682
25.47	3.95649
25.48	3.92031
25.49	3.93281
25.5	3.91833
25.51	3.91965
25.52	3.90583
25.53	3.93873
25.54	3.9361
25.55	3.91899
25.56	3.91175
25.57	3.9282
25.58	3.95847
25.59	3.93116
25.6	3.90748
25.61	3.9032
25.62	3.91899
25.63	3.94004
25.64	3.9407
25.65	3.92425
25.66	3.94235
25.67	3.93544
25.68	3.95254
25.69	3.95748
25.7	3.94926
25.71	3.95485
25.72	3.95452
25.73	3.95485
25.74	3.92031
25.75	3.9486
25.76	3.93939
25.77	3.92689
25.78	3.93149
25.79	3.93972
25.8	3.92491
25.81	3.93347
25.82	3.90452
25.83	3.91603
25.84	3.93478
25.85	3.90485
25.86	3.9588
25.87	3.92393
25.88	3.90978
25.89	3.93314
25.9	3.94268
25.91	3.9361
25.92	3.92327
25.93	3.91471
25.94	3.90682
25.95	3.93675
25.96	3.95254
25.97	3.94301
25.98	3.9361
25.99	3.918
26	3.97064
26.01	3.95222
26.02	3.93643
26.03	3.92031
26.04	3.91833
26.05	3.95123
26.06	3.91998
26.07	3.93248
26.08	3.90419
26.09	3.91504
26.1	3.93182
26.11	3.9634
26.12	3.95748
26.13	3.94465
26.14	3.92919
26.15	3.95978
26.16	3.91833
26.17	3.92787
26.18	3.91208
26.19	3.91636
26.2	3.95814
26.21	3.93807
26.22	3.94761
26.23	3.93643
26.24	3.93643
26.25	3.93708
26.26	3.92491
26.27	3.9236
26.28	3.90879
26.29	3.94366
26.3	3.93248
26.31	3.90814
26.32	3.93116
26.33	3.92261
26.34	3.93708
26.35	3.95485
26.36	3.97393
26.37	3.93577
26.38	3.9407
26.39	3.96505
26.4	3.95254
26.41	3.93248
26.42	3.92425
26.43	3.91603
26.44	3.96636
26.45	3.91373
26.46	3.91504
26.47	3.92985
26.48	3.90748
26.49	3.91274
26.5	3.95353
26.51	3.93774
26.52	3.94991
26.53	3.96505
26.54	3.91669
26.55	3.8986
26.56	3.92689
26.57	3.9361
26.58	3.95781
26.59	3.95847
26.6	3.91439
26.61	3.91669
26.62	3.93083
26.63	3.96307
26.64	3.95452
26.65	3.96077
26.66	3.96406
26.67	3.92754
26.68	3.88379
26.69	3.90189
26.7	3.94202
26.71	3.95485
26.72	3.96406
26.73	3.94037
26.74	3.90978
26.75	3.92754
26.76	3.91735
26.77	3.96636
26.78	3.94629
26.79	3.93807
26.8	3.92393
26.81	3.95189
26.82	3.9384
26.83	3.92228
26.84	3.93347
26.85	3.97064
26.86	3.90057
26.87	3.92064
26.88	3.95847
26.89	3.94103
26.9	3.95682
26.91	3.95518
26.92	3.95912
26.93	3.94958
26.94	3.96636
26.95	3.95781
26.96	3.94958
26.97	3.97097
26.98	3.93939
26.99	3.9236
27	3.95189
27.01	3.94991
27.02	3.95123
27.03	4.02294
27.04	3.99169
27.05	3.92294
27.06	3.93445
27.07	3.9282
27.08	3.94399
27.09	3.93478
27.1	3.93478
27.11	3.89958
27.12	3.90485
27.13	3.93116
27.14	3.95945
27.15	3.89958
27.16	3.89267
27.17	3.92228
27.18	3.94761
27.19	3.92853
27.2	3.91636
27.21	3.93643
27.22	3.94268
27.23	3.93215
27.24	3.95287
27.25	3.92919
27.26	3.95551
27.27	3.90912
27.28	3.93314
27.29	3.90748
27.3	3.92327
27.31	3.92919
27.32	3.9361
27.33	3.9282
27.34	3.95024
27.35	3.95912
27.36	3.94037
27.37	3.94268
27.38	3.94235
27.39	3.91077
27.4	3.90748
27.41	3.92491
27.42	3.93314
27.43	3.8657
27.44	3.88971
27.45	3.98182
27.46	3.93116
27.47	3.91965
27.48	3.97426
27.49	3.9111
27.5	3.94103
27.51	3.9055
27.52	3.97886
27.53	3.90945
27.54	3.93708
27.55	3.9532
27.56	3.8986
27.57	3.89333
27.58	3.95254
27.59	3.9407
27.6	3.94662
27.61	3.9532
27.62	3.94761
27.63	3.93643
27.64	3.93577
27.65	3.9407
27.66	3.94399
27.67	3.96077
27.68	3.94169
27.69	3.93215
27.7	3.89794
27.71	3.89465
27.72	3.97459
27.73	3.96965
27.74	3.9236
27.75	3.94695
27.76	3.96603
27.77	3.96143
27.78	3.91636
27.79	3.93379
27.8	3.94037
27.81	3.91899
27.82	3.90419
27.83	3.95682
27.84	3.94333
27.85	3.90024
27.86	3.95189
27.87	3.93182
27.88	3.93807
27.89	3.93643
27.9	3.94662
27.91	3.95254
27.92	3.9361
27.93	3.92031
27.94	3.88971
27.95	3.90254
27.96	3.91307
27.97	3.89827
27.98	3.9361
27.99	3.93643
28	3.9259
28.01	3.94202
28.02	3.89695
28.03	3.91504
28.04	3.90452
28.05	3.9634
28.06	3.96636
28.07	3.93379
28.08	3.92985
28.09	3.91143
28.1	3.97524
28.11	3.9611
28.12	3.95254
28.13	3.93314
28.14	3.93412
28.15	3.92952
28.16	3.93972
28.17	3.96439
28.18	3.97261
28.19	3.93511
28.2	3.90452
28.21	3.95748
28.22	3.94597
28.23	3.92853
28.24	3.93182
28.25	3.9236
28.26	3.92853
28.27	3.90781
28.28	3.93708
28.29	3.94498
28.3	3.90485
28.31	3.92327
28.32	3.89564
28.33	3.93215
28.34	3.94728
28.35	3.91636
28.36	3.89662
28.37	3.86932
28.38	3.93018
28.39	3.92787
28.4	3.95189
28.41	3.95222
28.42	3.94465
28.43	3.93018
28.44	3.90814
28.45	3.95978
28.46	3.94531
28.47	3.94004
28.48	3.92096
28.49	3.93149
28.5	3.95024
28.51	3.94268
28.52	3.89531
28.53	3.90353
28.54	3.95847
28.55	3.94893
28.56	3.93083
28.57	3.95518
28.58	3.95518
28.59	3.9407
28.6	3.93807
28.61	3.9588
28.62	3.9634
28.63	3.91833
28.64	3.90814
28.65	3.93774
28.66	3.93149
28.67	3.9055
28.68	3.91307
28.69	3.94103
28.7	3.92261
28.71	3.95156
28.72	3.94498
28.73	3.96307
28.74	3.90616
28.75	3.90978
28.76	3.93149
28.77	3.93347
28.78	3.93807
28.79	3.96735
28.8	3.94662
28.81	3.89498
28.82	3.95518
28.83	3.93478
28.84	3.9782
28.85	3.94136
28.86	3.92129
28.87	3.93906
28.88	3.92787
28.89	3.93248
28.9	3.97722
28.91	3.95814
28.92	3.93906
28.93	3.93906
28.94	3.94827
28.95	3.96077
28.96	3.94926
28.97	3.95715
28.98	3.9282
28.99	3.92491
29	3.92886
29.01	3.92689
29.02	3.93412
29.03	3.9407
29.04	3.96044
29.05	3.92623
29.06	3.87919
29.07	3.93412
29.08	3.9305
29.09	3.94794
29.1	3.90287
29.11	3.92064
29.12	3.92853
29.13	3.95682
29.14	3.9361
29.15	3.94136
29.16	3.9282
29.17	3.94728
29.18	3.96208
29.19	3.93972
29.2	3.92787
29.21	3.93906
29.22	3.89037
29.23	3.94629
29.24	3.9509
29.25	3.9305
29.26	3.92853
29.27	3.9657
29.28	3.91044
29.29	3.9259
29.3	3.94399
29.31	3.94333
29.32	3.96603
29.33	3.9588
29.34	3.90814
29.35	3.90517
29.36	3.95978
29.37	3.97195
29.38	3.90386
29.39	3.92031
29.4	3.92294
29.41	3.92722
29.42	3.91274
29.43	3.90583
29.44	3.91406
29.45	3.92623
29.46	3.92985
29.47	3.94301
29.48	3.90649
29.49	3.92327
29.5	3.97064
29.51	3.89136
29.52	3.91965
29.53	3.96735
29.54	3.94004
29.55	3.92195
29.56	3.91537
29.57	3.9305
29.58	3.91044
29.59	3.9259
29.6	3.9384
29.61	3.93873
29.62	3.93939
29.63	3.89564
29.64	3.94695
29.65	3.94827
29.66	3.89004
29.67	3.9407
29.68	3.93675
29.69	3.93083
29.7	3.94301
29.71	3.92919
29.72	3.95781
29.73	3.92031
29.74	3.92228
29.75	3.91669
29.76	3.92919
29.77	3.94564
29.78	3.9134
29.79	3.94268
29.8	3.94926
29.81	3.92557
29.82	3.93215
29.83	3.95485
29.84	3.94399
29.85	3.92524
29.86	3.8986
29.87	3.91439
29.88	3.94794
29.89	3.94004
29.9	3.92162
29.91	3.92458
29.92	3.94531
29.93	3.9657
29.94	3.94136
29.95	3.90748
29.96	3.89629
29.97	3.93347
29.98	3.92294
29.99	3.94794
30	3.97853
30.01	3.95847
30.02	3.92425
30.03	3.87853
30.04	3.87952
30.05	3.89794
30.06	3.89333
30.07	3.93412
30.08	3.93906
30.09	3.91899
30.1	3.93544
30.11	3.9282
30.12	3.94662
30.13	3.93906
30.14	3.9134
30.15	3.9111
30.16	3.9134
30.17	3.90024
30.18	3.92064
30.19	3.94926
30.2	3.92425
30.21	3.94366
30.22	3.95452
30.23	3.92886
30.24	3.90221
30.25	3.94202
30.26	3.918
30.27	3.89892
30.28	3.93182
30.29	3.91439
30.3	3.94366
30.31	3.93807
30.32	3.91537
30.33	3.91241
30.34	3.92228
30.35	3.94169
30.36	3.90517
30.37	3.95123
30.38	3.95222
30.39	3.92524
30.4	3.94004
30.41	3.93281
30.42	3.96833
30.43	3.95847
30.44	3.91504
30.45	3.90616
30.46	3.90287
30.47	3.92623
30.48	3.93281
30.49	3.94235
30.5	3.9384
30.51	3.9384
30.52	3.88906
30.53	3.94498
30.54	3.91768
30.55	3.91307
30.56	3.93314
30.57	3.93281
30.58	3.94597
30.59	3.94498
30.6	3.89794
30.61	3.91735
30.62	3.96241
30.63	3.93643
30.64	3.92195
30.65	3.92327
30.66	3.92985
30.67	3.94366
30.68	3.95945
30.69	3.92393
30.7	3.89925
30.71	3.95353
30.72	3.93412
30.73	3.9055
30.74	3.92623
30.75	3.90978
30.76	3.9361
30.77	3.90189
30.78	3.9236
30.79	3.95518
30.8	3.93379
30.81	3.89235
30.82	3.89169
30.83	3.91439
30.84	3.90189
30.85	3.92919
30.86	3.96899
30.87	3.93445
30.88	3.89465
30.89	3.90978
30.9	3.91636
30.91	3.94531
30.92	3.9055
30.93	3.89892
30.94	3.8782
30.95	3.90846
30.96	3.93511
30.97	3.94004
30.98	3.94004
30.99	3.94004
31	3.94268
31.01	3.92294
31.02	3.9361
31.03	3.93643
31.04	3.94202
31.05	3.90715
31.06	3.90353
31.07	3.90912
31.08	3.91735
31.09	3.95123
31.1	3.93544
31.11	3.91603
31.12	3.92689
31.13	3.93149
31.14	3.94301
31.15	3.94893
31.16	3.90649
31.17	3.94728
31.18	3.93149
31.19	3.89399
31.2	3.90353
31.21	3.90978
31.22	3.91241
31.23	3.918
31.24	3.94399
31.25	3.90386
31.26	3.9055
31.27	3.89399
31.28	3.90353
31.29	3.89794
31.3	3.9134
31.31	3.93083
31.32	3.91471
31.33	3.9282
31.34	3.90583
31.35	3.89333
31.36	3.88708
31.37	3.92425
31.38	3.94136
31.39	3.88906
31.4	3.89366
31.41	3.90583
31.42	3.94958
31.43	3.92228
31.44	3.89662
31.45	3.89892
31.46	3.94235
31.47	3.9282
31.48	3.94235
31.49	3.92261
31.5	3.90715
31.51	3.91143
31.52	3.93478
31.53	3.93248
31.54	3.93972
31.55	3.94531
31.56	3.95649
31.57	3.92952
31.58	3.91537
31.59	3.94629
31.6	3.893
31.61	3.91439
31.62	3.92886
31.63	3.92491
31.64	3.95057
31.65	3.94202
31.66	3.94893
31.67	3.93873
31.68	3.88938
31.69	3.91735
31.7	3.89958
31.71	3.9111
31.72	3.93182
31.73	3.89695
31.74	3.91702
31.75	3.93643
31.76	3.88906
31.77	3.91504
31.78	3.90715
31.79	3.93248
31.8	3.93215
31.81	3.90846
31.82	3.87458
31.83	3.95978
31.84	3.91504
31.85	3.96011
31.86	3.94235
31.87	3.94202
31.88	3.92985
31.89	3.93412
31.9	3.92458
31.91	3.92096
31.92	3.9486
31.93	3.91044
31.94	3.91406
31.95	3.97097
31.96	3.93577
31.97	3.91471
31.98	3.95748
31.99	3.90879
32	3.89465
32.01	3.93873
32.02	3.92327
32.03	3.93544
32.04	3.90156
32.05	3.91439
32.06	3.91768
32.07	3.93939
32.08	3.95287
32.09	3.93215
32.1	3.9486
32.11	3.97787
32.12	3.97327
32.13	3.95419
32.14	3.92623
32.15	3.89695
32.16	3.9134
32.17	3.95847
32.18	3.91702
32.19	3.90485
32.2	3.91504
32.21	3.9157
32.22	3.87754
32.23	3.91768
32.24	3.91077
32.25	3.90616
32.26	3.91175
32.27	3.9282
32.28	3.92952
32.29	3.95485
32.3	3.92787
32.31	3.93939
32.32	3.96636
32.33	3.90715
32.34	3.91175
32.35	3.92952
32.36	3.94498
32.37	3.95057
32.38	3.93248
32.39	3.96768
32.4	3.93643
32.41	3.93972
32.42	3.91011
32.43	3.94235
32.44	3.90123
32.45	3.89958
32.46	3.90419
32.47	3.86471
32.48	3.95024
32.49	3.93939
32.5	3.90386
32.51	3.93149
32.52	3.93643
32.53	3.94926
32.54	3.89564
32.55	3.89827
32.56	3.9009
32.57	3.89761
32.58	3.90715
32.59	3.9361
32.6	3.92228
32.61	3.93281
32.62	3.93873
32.63	3.93215
32.64	3.92853
32.65	3.93083
32.66	3.92722
32.67	3.95123
32.68	3.94202
32.69	3.91702
32.7	3.94629
32.71	3.93149
32.72	3.93807
32.73	3.91932
32.74	3.91636
32.75	3.92458
32.76	3.89629
32.77	3.90123
32.78	3.92294
32.79	3.91866
32.8	3.94827
32.81	3.94991
32.82	3.93379
32.83	3.92656
32.84	3.9236
32.85	3.91768
32.86	3.92886
32.87	3.91866
32.88	3.93083
32.89	3.96537
32.9	3.97195
32.91	3.93215
32.92	3.92787
32.93	3.94202
32.94	3.9759
32.95	3.94103
32.96	3.94597
32.97	3.92919
32.98	3.88741
32.99	3.92228
33	3.92031
33.01	3.9157
33.02	3.93774
33.03	3.93347
33.04	3.90846
33.05	3.89333
33.06	3.89366
33.07	3.89399
33.08	3.92722
33.09	3.91011
33.1	3.91965
33.11	3.91011
33.12	3.91932
33.13	3.93643
33.14	3.92228
33.15	3.92393
33.16	3.96208
33.17	3.91866
33.18	3.92096
33.19	3.93314
33.2	3.94366
33.21	3.95518
33.22	3.93215
33.23	3.94761
33.24	3.91768
33.25	3.90616
33.26	3.92623
33.27	3.9055
33.28	3.89136
33.29	3.94926
33.3	3.93018
33.31	3.94399
33.32	3.9055
33.33	3.90189
33.34	3.9486
33.35	3.97031
33.36	3.91208
33.37	3.90057
33.38	3.97689
33.39	3.95057
33.4	3.9009
33.41	3.91866
33.42	3.9236
33.43	3.93577
33.44	3.91439
33.45	3.9157
33.46	3.90485
33.47	3.92656
33.48	3.9305
33.49	3.91702
33.5	3.90748
33.51	3.92162
33.52	3.90057
33.53	3.92886
33.54	3.95583
33.55	3.9486
33.56	3.91636
33.57	3.89202
33.58	3.93018
33.59	3.95814
33.6	3.94597
33.61	3.9032
33.62	3.93906
33.63	3.95156
33.64	3.95781
33.65	3.9157
33.66	3.8986
33.67	3.90353
33.68	3.93347
33.69	3.89991
33.7	3.91175
33.71	3.95583
33.72	3.90254
33.73	3.8986
33.74	3.93511
33.75	3.92985
33.76	3.9134
33.77	3.93149
33.78	3.92425
33.79	3.91669
33.8	3.87491
33.81	3.88544
33.82	3.9134
33.83	3.89695
33.84	3.92787
33.85	3.91899
33.86	3.9361
33.87	3.92228
33.88	3.92787
33.89	3.9588
33.9	3.93972
33.91	3.93149
33.92	3.9236
33.93	3.93248
33.94	3.9134
33.95	3.89761
33.96	3.93018
33.97	3.93379
33.98	3.92228
33.99	3.93412
34	3.92985
34.01	3.90781
34.02	3.89037
34.03	3.91077
34.04	3.91768
34.05	3.94399
34.06	3.91965
34.07	3.90748
34.08	3.91439
34.09	3.92557
34.1	3.91702
34.11	3.9305
34.12	3.91439
34.13	3.91274
34.14	3.88346
34.15	3.91669
34.16	3.93215
34.17	3.91636
34.18	3.9009
34.19	3.89629
34.2	3.92327
34.21	3.94136
34.22	3.94958
34.23	3.92261
34.24	3.93116
34.25	3.9032
34.26	3.88313
34.27	3.87787
34.28	3.91768
34.29	3.96011
34.3	3.91077
34.31	3.89958
34.32	3.8907
34.33	3.88511
34.34	3.94399
34.35	3.93347
34.36	3.90189
34.37	3.93741
34.38	3.92064
34.39	3.95287
34.4	3.93347
34.41	3.91044
34.42	3.92327
34.43	3.93215
34.44	3.94498
34.45	3.94103
34.46	3.93544
34.47	3.91406
34.48	3.89004
34.49	3.94991
34.5	3.89827
34.51	3.92853
34.52	3.93347
34.53	3.93314
34.54	3.9236
34.55	3.88215
34.56	3.88938
34.57	3.90781
34.58	3.93412
34.59	3.95452
34.6	3.91143
34.61	3.91965
34.62	3.94399
34.63	3.91143
34.64	3.90583
34.65	3.90814
34.66	3.92985
34.67	3.92129
34.68	3.93643
34.69	3.95978
34.7	3.94629
34.71	3.91735
34.72	3.9305
34.73	3.94662
34.74	3.93741
34.75	3.91669
34.76	3.93873
34.77	3.95386
34.78	3.91702
34.79	3.92129
34.8	3.93379
34.81	3.89925
34.82	3.9055
34.83	3.89728
34.84	3.86438
34.85	3.85978
34.86	3.90649
34.87	3.95518
34.88	3.93807
34.89	3.94958
34.9	3.89794
34.91	3.89399
34.92	3.93675
34.93	3.91175
34.94	3.90024
34.95	3.91932
34.96	3.90781
34.97	3.92491
34.98	3.94399
34.99	3.94597
35	3.90057
35.01	3.91044
35.02	3.93511
35.03	3.92623
35.04	3.918
35.05	3.94103
35.06	3.9509
35.07	3.91208
35.08	3.91077
35.09	3.90452
35.1	3.92985
35.11	3.94629
35.12	3.91735
35.13	3.91768
35.14	3.89991
35.15	3.91735
35.16	3.90912
35.17	3.91899
35.18	3.90485
35.19	3.88313
35.2	3.93741
35.21	3.9055
35.22	3.87754
35.23	3.91669
35.24	3.94465
35.25	3.92458
35.26	3.86471
35.27	3.92425
35.28	3.89366
35.29	3.90353
35.3	3.92031
35.31	3.89991
35.32	3.90189
35.33	3.91899
35.34	3.91504
35.35	3.96702
35.36	3.9384
35.37	3.88116
35.38	3.91932
35.39	3.92853
35.4	3.91406
35.41	3.94268
35.42	3.95814
35.43	3.93314
35.44	3.91965
35.45	3.93708
35.46	3.95847
35.47	3.8986
35.48	3.9236
35.49	3.91241
35.5	3.93182
35.51	3.91702
35.52	3.9134
35.53	3.9236
35.54	3.91471
35.55	3.92491
35.56	3.94498
35.57	3.91932
35.58	3.91077
35.59	3.91833
35.6	3.92919
35.61	3.92393
35.62	3.91669
35.63	3.96011
35.64	3.92096
35.65	3.91833
35.66	3.90485
35.67	3.88182
35.68	3.94037
35.69	3.91932
35.7	3.90912
35.71	3.9259
35.72	3.94202
35.73	3.91636
35.74	3.91373
35.75	3.90057
35.76	3.9259
35.77	3.95419
35.78	3.91077
35.79	3.91241
35.8	3.92162
35.81	3.92623
35.82	3.88741
35.83	3.91735
35.84	3.95551
35.85	3.92952
35.86	3.96472
35.87	3.91735
35.88	3.89695
35.89	3.918
35.9	3.92524
35.91	3.88149
35.92	3.91241
35.93	3.92327
35.94	3.92722
35.95	3.93248
35.96	3.92722
35.97	3.96077
35.98	3.8861
35.99	3.90649
36	3.92228
36.01	3.91998
36.02	3.91636
36.03	3.88313
36.04	3.85649
36.05	3.88807
36.06	3.91899
36.07	3.92722
36.08	3.90945
36.09	3.95583
36.1	3.94136
36.11	3.94564
36.12	3.9134
36.13	3.91702
36.14	3.90583
36.15	3.91603
36.16	3.9259
36.17	3.93314
36.18	3.88675
36.19	3.89662
36.2	3.91603
36.21	3.91011
36.22	3.90649
36.23	3.8986
36.24	3.92425
36.25	3.91932
36.26	3.90353
36.27	3.92985
36.28	3.94136
36.29	3.89333
36.3	3.91143
36.31	3.91603
36.32	3.93248
36.33	3.93018
36.34	3.92129
36.35	3.90616
36.36	3.93182
36.37	3.92393
36.38	3.94202
36.39	3.95024
36.4	3.91175
36.41	3.91899
36.42	3.94235
36.43	3.92886
36.44	3.92195
36.45	3.9361
36.46	3.93939
36.47	3.92689
36.48	3.96669
36.49	3.89728
36.5	3.89892
36.51	3.91044
36.52	3.8884
36.53	3.89596
36.54	3.9236
36.55	3.94268
36.56	3.90419
36.57	3.9009
36.58	3.91011
36.59	3.9282
36.6	3.9611
36.61	3.92623
36.62	3.91504
36.63	3.90353
36.64	3.90123
36.65	3.90945
36.66	3.92261
36.67	3.88906
36.68	3.91307
36.69	3.97097
36.7	3.92722
36.71	3.89991
36.72	3.88116
36.73	3.89531
36.74	3.9111
36.75	3.91143
36.76	3.93643
36.77	3.94597
36.78	3.90221
36.79	3.92754
36.8	3.90715
36.81	3.92952
36.82	3.91175
36.83	3.90123
36.84	3.93149
36.85	3.93708
36.86	3.91833
36.87	3.93149
36.88	3.89465
36.89	3.93544
36.9	3.91768
36.91	3.90748
36.92	3.91044
36.93	3.91636
36.94	3.89564
36.95	3.9055
36.96	3.92096
36.97	3.89202
36.98	3.89103
36.99	3.90156
37	3.91471
37.01	3.91768
37.02	3.92425
37.03	3.90485
37.04	3.90419
37.05	3.89958
37.06	3.91833
37.07	3.91735
37.08	3.88412
37.09	3.89169
37.1	3.89925
37.11	3.91833
37.12	3.92096
37.13	3.91899
37.14	3.89662
37.15	3.9259
37.16	3.93906
37.17	3.93248
37.18	3.91899
37.19	3.9509
37.2	3.9486
37.21	3.92952
37.22	3.93281
37.23	3.92228
37.24	3.92393
37.25	3.92327
37.26	3.8805
37.27	3.90814
37.28	3.9236
37.29	3.91307
37.3	3.90221
37.31	3.90814
37.32	3.90419
37.33	3.93083
37.34	3.92754
37.35	3.94136
37.36	3.90419
37.37	3.9236
37.38	3.93182
37.39	3.92393
37.4	3.91011
37.41	3.88873
37.42	3.89761
37.43	3.92294
37.44	3.91439
37.45	3.89564
37.46	3.89465
37.47	3.89531
37.48	3.89564
37.49	3.90189
37.5	3.89465
37.51	3.92031
37.52	3.97064
37.53	3.95583
37.54	3.93708
37.55	3.91208
37.56	3.89892
37.57	3.91504
37.58	3.91504
37.59	3.90123
37.6	3.8986
37.61	3.91077
37.62	3.90649
37.63	3.90781
37.64	3.90912
37.65	3.89366
37.66	3.89761
37.67	3.88971
37.68	3.9532
37.69	3.94399
37.7	3.93939
37.71	3.90978
37.72	3.9532
37.73	3.93215
37.74	3.90945
37.75	3.88741
37.76	3.92195
37.77	3.92886
37.78	3.93445
37.79	3.90978
37.8	3.90517
37.81	3.92985
37.82	3.9032
37.83	3.92754
37.84	3.92425
37.85	3.9282
37.86	3.90781
37.87	3.94432
37.88	3.92294
37.89	3.92952
37.9	3.90715
37.91	3.92393
37.92	3.92064
37.93	3.91011
37.94	3.89169
37.95	3.93873
37.96	3.93281
37.97	3.90879
37.98	3.92656
37.99	3.90748
38	3.91044
38.01	3.90123
38.02	3.91965
38.03	3.93018
38.04	3.9236
38.05	3.91833
38.06	3.90386
38.07	3.93577
38.08	3.91011
38.09	3.91504
38.1	3.9009
38.11	3.89629
38.12	3.89761
38.13	3.92393
38.14	3.87195
38.15	3.90583
38.16	3.90189
38.17	3.91504
38.18	3.918
38.19	3.92327
38.2	3.94268
38.21	3.89761
38.22	3.9236
38.23	3.9055
38.24	3.93643
38.25	3.91406
38.26	3.91636
38.27	3.92064
38.28	3.90386
38.29	3.93577
38.3	3.94465
38.31	3.90846
38.32	3.91932
38.33	3.9055
38.34	3.88346
38.35	3.92031
38.36	3.90846
38.37	3.88577
38.38	3.91669
38.39	3.92524
38.4	3.94794
38.41	3.93281
38.42	3.92985
38.43	3.90781
38.44	3.9259
38.45	3.92294
38.46	3.94235
38.47	3.91011
38.48	3.87919
38.49	3.8805
38.5	3.93347
38.51	3.89399
38.52	3.93182
38.53	3.93379
38.54	3.98478
38.55	3.94794
38.56	3.92294
38.57	3.92787
38.58	3.94564
38.59	3.95287
38.6	3.92557
38.61	3.93347
38.62	3.91735
38.63	3.89794
38.64	3.9384
38.65	3.90649
38.66	3.89267
38.67	3.90616
38.68	3.9111
38.69	3.92096
38.7	3.92754
38.71	3.96143
38.72	3.92294
38.73	3.91735
38.74	3.95419
38.75	3.90616
38.76	3.87656
38.77	3.92261
38.78	3.9134
38.79	3.89662
38.8	3.91373
38.81	3.89366
38.82	3.94037
38.83	3.92919
38.84	3.91241
38.85	3.93939
38.86	3.92886
38.87	3.94597
38.88	3.93478
38.89	3.8986
38.9	3.96044
38.91	3.9157
38.92	3.91603
38.93	3.90649
38.94	3.9134
38.95	3.89103
38.96	3.9055
38.97	3.89728
38.98	3.90452
38.99	3.92853
39	3.88708
39.01	3.89202
39.02	3.89366
39.03	3.9111
39.04	3.89037
39.05	3.94761
39.06	3.93083
39.07	3.89202
39.08	3.90879
39.09	3.91965
39.1	3.9486
39.11	3.94202
39.12	3.92393
39.13	3.9055
39.14	3.918
39.15	3.9305
39.16	3.93774
39.17	3.94103
39.18	3.90024
39.19	3.90386
39.2	3.9111
39.21	3.88642
39.22	3.89235
39.23	3.87721
39.24	3.90682
39.25	3.9259
39.26	3.94893
39.27	3.95024
39.28	3.93544
39.29	3.92228
39.3	3.90682
39.31	3.90583
39.32	3.92458
39.33	3.93939
39.34	3.93215
39.35	3.90748
39.36	3.94695
39.37	3.94004
39.38	3.87623
39.39	3.90978
39.4	3.92952
39.41	3.89498
39.42	3.88971
39.43	3.89794
39.44	3.94136
39.45	3.90287
39.46	3.92129
39.47	3.87952
39.48	3.91044
39.49	3.92162
39.5	3.90024
39.51	3.89432
39.52	3.92656
39.53	3.91175
39.54	3.90189
39.55	3.89564
39.56	3.91702
39.57	3.91932
39.58	3.89366
39.59	3.90485
39.6	3.94301
39.61	3.88807
39.62	3.88346
39.63	3.92754
39.64	3.84234
39.65	3.88938
39.66	3.92689
39.67	3.93149
39.68	3.88248
39.69	3.92656
39.7	3.90748
39.71	3.92886
39.72	3.93149
39.73	3.91175
39.74	3.89432
39.75	3.88873
39.76	3.86142
39.77	3.9111
39.78	3.92064
39.79	3.90978
39.8	3.88906
39.81	3.93182
39.82	3.90748
39.83	3.90814
39.84	3.92754
39.85	3.92623
39.86	3.92919
39.87	3.91011
39.88	3.97031
39.89	3.91307
39.9	3.90583
39.91	3.91274
39.92	3.91636
39.93	3.93577
39.94	3.94597
39.95	3.93182
39.96	3.90978
39.97	3.90221
39.98	3.89892
39.99	3.9384
40	3.93182
40.01	3.95254
40.02	3.91274
40.03	3.90814
40.04	3.92754
40.05	3.93182
40.06	3.89432
40.07	3.88938
40.08	3.88248
40.09	3.89761
40.1	3.9032
40.11	3.90748
40.12	3.90221
40.13	3.92096
40.14	3.86274
40.15	3.87294
40.16	3.89794
40.17	3.8884
40.18	3.96143
40.19	3.95583
40.2	3.86109
40.21	3.89432
40.22	3.88971
40.23	3.90517
40.24	3.94629
40.25	3.90682
40.26	3.89958
40.27	3.9486
40.28	3.91439
40.29	3.89629
40.3	3.88083
40.31	3.89103
40.32	3.9486
40.33	3.95254
40.34	3.87754
40.35	3.9282
40.36	3.91537
40.37	3.91175
40.38	3.92064
40.39	3.94301
40.4	3.87261
40.41	3.89498
40.42	3.8884
40.43	3.89728
40.44	3.92393
40.45	3.9407
40.46	3.93478
40.47	3.9384
40.48	3.91702
40.49	3.92162
40.5	3.91899
40.51	3.893
40.52	3.90879
40.53	3.91241
40.54	3.91373
40.55	3.91241
40.56	3.93018
40.57	3.90846
40.58	3.89958
40.59	3.90189
40.6	3.94761
40.61	3.96998
40.62	3.92491
40.63	3.91406
40.64	3.90057
40.65	3.90781
40.66	3.91044
40.67	3.9134
40.68	3.88017
40.69	3.8907
40.7	3.91932
40.71	3.92228
40.72	3.93939
40.73	3.89958
40.74	3.89695
40.75	3.9361
40.76	3.90781
40.77	3.93379
40.78	3.92524
40.79	3.9055
40.8	3.89761
40.81	3.85649
40.82	3.88511
40.83	3.93215
40.84	3.94235
40.85	3.92228
40.86	3.89037
40.87	3.87952
40.88	3.918
40.89	3.90024
40.9	3.92162
40.91	3.90024
40.92	3.86932
40.93	3.89004
40.94	3.89695
40.95	3.91274
40.96	3.92491
40.97	3.92689
40.98	3.9282
40.99	3.93347
41	3.94235
41.01	3.93478
41.02	3.95386
41.03	3.91307
41.04	3.91241
41.05	3.8657
41.06	3.9009
41.07	3.94794
41.08	3.91702
41.09	3.88906
41.1	3.89958
41.11	3.92096
41.12	3.94333
41.13	3.90189
41.14	3.91044
41.15	3.89662
41.16	3.92064
41.17	3.93939
41.18	3.93116
41.19	3.91833
41.2	3.89958
41.21	3.88906
41.22	3.89498
41.23	3.93347
41.24	3.89728
41.25	3.87754
41.26	3.92228
41.27	3.89531
41.28	3.89958
41.29	3.9134
41.3	3.92064
41.31	3.93478
41.32	3.95024
41.33	3.93182
41.34	3.91899
41.35	3.91636
41.36	3.94728
41.37	3.93939
41.38	3.92327
41.39	3.94531
41.4	3.89498
41.41	3.893
41.42	3.9384
41.43	3.90846
41.44	3.90715
41.45	3.93445
41.46	3.90123
41.47	3.91899
41.48	3.91143
41.49	3.95748
41.5	3.91735
41.51	3.89235
41.52	3.90386
41.53	3.92886
41.54	3.94695
41.55	3.95583
41.56	3.93281
41.57	3.94662
41.58	3.90287
41.59	3.89629
41.6	3.90452
41.61	3.918
41.62	3.89267
41.63	3.86011
41.64	3.90583
41.65	3.91274
41.66	3.89892
41.67	3.91011
41.68	3.8986
41.69	3.89662
41.7	3.88938
41.71	3.87754
41.72	3.89925
41.73	3.91965
41.74	3.91636
41.75	3.90748
41.76	3.91011
41.77	3.9236
41.78	3.92064
41.79	3.91011
41.8	3.92327
41.81	3.89761
41.82	3.91307
41.83	3.93149
41.84	3.90254
41.85	3.92985
41.86	3.92162
41.87	3.918
41.88	3.91307
41.89	3.92425
41.9	3.90846
41.91	3.91603
41.92	3.93741
41.93	3.94268
41.94	3.9111
41.95	3.89235
41.96	3.89333
41.97	3.88017
41.98	3.89267
41.99	3.86734
42	3.85912
42.01	3.94136
42.02	3.93643
42.03	3.91537
42.04	3.92162
42.05	3.92886
42.06	3.90189
42.07	3.90715
42.08	3.89037
42.09	3.92491
42.1	3.91307
42.11	3.92393
42.12	3.92261
42.13	3.93577
42.14	3.92162
42.15	3.89761
42.16	3.87327
42.17	3.88642
42.18	3.94004
42.19	3.93774
42.2	3.918
42.21	3.87063
42.22	3.91866
42.23	3.94564
42.24	3.91077
42.25	3.89892
42.26	3.91735
42.27	3.89892
42.28	3.87688
42.29	3.92425
42.3	3.92656
42.31	3.93478
42.32	3.90879
42.33	3.9361
42.34	3.92787
42.35	3.95649
42.36	3.92294
42.37	3.88906
42.38	3.88116
42.39	3.89695
42.4	3.93379
42.41	3.92327
42.42	3.89432
42.43	3.91735
42.44	3.90715
42.45	3.92064
42.46	3.91471
42.47	3.91669
42.48	3.88281
42.49	3.9055
42.5	3.89531
42.51	3.91537
42.52	3.90616
42.53	3.9236
42.54	3.91833
42.55	3.95123
42.56	3.9134
42.57	3.92886
42.58	3.9611
42.59	3.94761
42.6	3.92327
42.61	3.90912
42.62	3.92393
42.63	3.90945
42.64	3.94235
42.65	3.92195
42.66	3.8884
42.67	3.85978
42.68	3.87886
42.69	3.91406
42.7	3.9259
42.71	3.90419
42.72	3.86965
42.73	3.92129
42.74	3.90419
42.75	3.91307
42.76	3.91866
42.77	3.94991
42.78	3.95485
42.79	3.90123
42.8	3.92952
42.81	3.91274
42.82	3.95287
42.83	3.92557
42.84	3.94169
42.85	3.91768
42.86	3.90748
42.87	3.93215
42.88	3.96044
42.89	3.8861
42.9	3.88215
42.91	3.88412
42.92	3.90945
42.93	3.91175
42.94	3.9055
42.95	3.92327
42.96	3.9259
42.97	3.92656
42.98	3.89662
42.99	3.91702
43	3.88182
43.01	3.89465
43.02	3.89498
43.03	3.88708
43.04	3.88807
43.05	3.89366
43.06	3.90189
43.07	3.94202
43.08	3.89629
43.09	3.89794
43.1	3.89103
43.11	3.90649
43.12	3.91011
43.13	3.92689
43.14	3.89958
43.15	3.91833
43.16	3.92162
43.17	3.88017
43.18	3.91965
43.19	3.96833
43.2	3.89333
43.21	3.90156
43.22	3.9282
43.23	3.91373
43.24	3.90583
43.25	3.90945
43.26	3.91768
43.27	3.89235
43.28	3.88445
43.29	3.89695
43.3	3.92853
43.31	3.90517
43.32	3.89103
43.33	3.93511
43.34	3.93478
43.35	3.9361
43.36	3.92491
43.37	3.95682
43.38	3.91241
43.39	3.89892
43.4	3.96998
43.41	3.89399
43.42	3.90156
43.43	3.92031
43.44	3.89695
43.45	3.90912
43.46	3.90057
43.47	3.91735
43.48	3.92787
43.49	3.94564
43.5	3.91406
43.51	3.87458
43.52	3.89498
43.53	3.91504
43.54	3.89925
43.55	3.893
43.56	3.89531
43.57	3.90616
43.58	3.90945
43.59	3.9282
43.6	3.93511
43.61	3.89892
43.62	3.8986
43.63	3.89366
43.64	3.91307
43.65	3.85978
43.66	3.90057
43.67	3.92458
43.68	3.93643
43.69	3.93741
43.7	3.95024
43.71	3.90682
43.72	3.91307
43.73	3.91406
43.74	3.92985
43.75	3.91274
43.76	3.91702
43.77	3.93281
43.78	3.90057
43.79	3.9282
43.8	3.88083
43.81	3.90912
43.82	3.92162
43.83	3.91373
43.84	3.91274
43.85	3.89925
43.86	3.90221
43.87	3.87557
43.88	3.93215
43.89	3.91504
43.9	3.87162
43.91	3.88544
43.92	3.95156
43.93	3.95024
43.94	3.90517
43.95	3.88971
43.96	3.90781
43.97	3.94498
43.98	3.9305
43.99	3.92557
44	3.89004
44.01	3.9111
44.02	3.9009
44.03	3.89761
44.04	3.89103
44.05	3.91439
44.06	3.90748
44.07	3.8986
44.08	3.90978
44.09	3.90814
44.1	3.88281
44.11	3.90287
44.12	3.90386
44.13	3.91603
44.14	3.90879
44.15	3.91373
44.16	3.90057
44.17	3.92162
44.18	3.91504
44.19	3.91077
44.2	3.92689
44.21	3.94366
44.22	3.89827
44.23	3.89366
44.24	3.89465
44.25	3.92393
44.26	3.89695
44.27	3.91044
44.28	3.93149
44.29	3.92787
44.3	3.91998
44.31	3.92656
44.32	3.92129
44.33	3.90846
44.34	3.91406
44.35	3.94893
44.36	3.91768
44.37	3.9111
44.38	3.92524
44.39	3.92228
44.4	3.90386
44.41	3.93248
44.42	3.91965
44.43	3.92787
44.44	3.8861
44.45	3.90781
44.46	3.91998
44.47	3.93577
44.48	3.89531
44.49	3.91175
44.5	3.95485
44.51	3.91373
44.52	3.90781
44.53	3.9532
44.54	3.93215
44.55	3.91504
44.56	3.9111
44.57	3.90485
44.58	3.90781
44.59	3.88873
44.6	3.90945
44.61	3.93511
44.62	3.91866
44.63	3.92491
44.64	3.92524
44.65	3.93577
44.66	3.93379
44.67	3.9486
44.68	3.90386
44.69	3.94169
44.7	3.94004
44.71	3.91998
44.72	3.90879
44.73	3.89925
44.74	3.89103
44.75	3.87787
44.76	3.92261
44.77	3.90781
44.78	3.92623
44.79	3.94958
44.8	3.92853
44.81	3.94794
44.82	3.93741
44.83	3.88248
44.84	3.86932
44.85	3.89498
44.86	3.91504
44.87	3.89695
44.88	3.8861
44.89	3.91011
44.9	3.89399
44.91	3.9032
44.92	3.94893
44.93	3.91307
44.94	3.94301
44.95	3.91044
44.96	3.89695
44.97	3.90748
44.98	3.9282
44.99	3.9134
45	3.92458
45.01	3.92524
45.02	3.89136
45.03	3.87228
45.04	3.91899
45.05	3.88906
45.06	3.88971
45.07	3.93215
45.08	3.93544
45.09	3.90156
45.1	3.95485
45.11	3.96965
45.12	3.95847
45.13	3.96603
45.14	3.92853
45.15	3.93281
45.16	3.90419
45.17	3.89991
45.18	3.91011
45.19	3.88675
45.2	3.92722
45.21	3.95583
45.22	3.9259
45.23	3.9384
45.24	3.93182
45.25	3.91866
45.26	3.92393
45.27	3.92689
45.28	3.91833
45.29	3.88774
45.3	3.90682
45.31	3.90123
45.32	3.9134
45.33	3.90156
45.34	3.9134
45.35	3.88379
45.36	3.93741
45.37	3.9055
45.38	3.9009
45.39	3.93906
45.4	3.91537
45.41	3.89564
45.42	3.90715
45.43	3.89695
45.44	3.9236
45.45	3.92689
45.46	3.86603
45.47	3.89925
45.48	3.90879
45.49	3.91077
45.5	3.89465
45.51	3.9486
45.52	3.91504
45.53	3.90386
45.54	3.9305
45.55	3.90912
45.56	3.94794
45.57	3.91044
45.58	3.91406
45.59	3.92162
45.6	3.88215
45.61	3.93807
45.62	3.92656
45.63	3.92524
45.64	3.93577
45.65	3.93149
45.66	3.92162
45.67	3.93281
45.68	3.91208
45.69	3.88642
45.7	3.90616
45.71	3.88248
45.72	3.89004
45.73	3.92031
45.74	3.90781
45.75	3.8986
45.76	3.93774
45.77	3.90879
45.78	3.93972
45.79	3.88116
45.8	3.87294
45.81	3.88577
45.82	3.92162
45.83	3.91603
45.84	3.92458
45.85	3.89629
45.86	3.88708
45.87	3.86307
45.88	3.90221
45.89	3.91307
45.9	3.90485
45.91	3.93116
45.92	3.89794
45.93	3.89794
45.94	3.86767
45.95	3.90353
45.96	3.94531
45.97	3.89333
45.98	3.92195
45.99	3.90616
46	3.8986
46.01	3.89465
46.02	3.91669
46.03	3.91439
46.04	3.90189
46.05	3.91866
46.06	3.8861
46.07	3.91899
46.08	3.89662
46.09	3.90649
46.1	3.91406
46.11	3.93379
46.12	3.89794
46.13	3.89991
46.14	3.91011
46.15	3.8884
46.16	3.90419
46.17	3.86833
46.18	3.88675
46.19	3.95287
46.2	3.89827
46.21	3.93577
46.22	3.8884
46.23	3.92327
46.24	3.91241
46.25	3.91768
46.26	3.91768
46.27	3.92722
46.28	3.89037
46.29	3.93314
46.3	3.92129
46.31	3.90156
46.32	3.92294
46.33	3.90682
46.34	3.88708
46.35	3.92886
46.36	3.94629
46.37	3.91307
46.38	3.92754
46.39	3.92787
46.4	3.92064
46.41	3.95551
46.42	3.94498
46.43	3.90517
46.44	3.91208
46.45	3.9055
46.46	3.89366
46.47	3.88248
46.48	3.90879
46.49	3.95912
46.5	3.90978
46.51	3.95057
46.52	3.93774
46.53	3.92294
46.54	3.93708
46.55	3.93248
46.56	3.92162
46.57	3.92195
46.58	3.88873
46.59	3.91373
46.6	3.91274
46.61	3.92656
46.62	3.93018
46.63	3.91965
46.64	3.93774
46.65	3.9032
46.66	3.86965
46.67	3.9134
46.68	3.91965
46.69	3.92689
46.7	3.92722
46.71	3.90945
46.72	3.90024
46.73	3.89399
46.74	3.93972
46.75	3.92886
46.76	3.94465
46.77	3.92689
46.78	3.9111
46.79	3.92162
46.8	3.89827
46.81	3.92393
46.82	3.91866
46.83	3.88971
46.84	3.92886
46.85	3.9305
46.86	3.93939
46.87	3.92425
46.88	3.90485
46.89	3.89136
46.9	3.8861
46.91	3.91044
46.92	3.90057
46.93	3.92425
46.94	3.9532
46.95	3.87425
46.96	3.91241
46.97	3.90879
46.98	3.90583
46.99	3.89728
47	3.87919
47.01	3.90419
47.02	3.91537
47.03	3.9282
47.04	3.95222
47.05	3.92261
47.06	3.93083
47.07	3.94399
47.08	3.92524
47.09	3.91471
47.1	3.8805
47.11	3.89103
47.12	3.88313
47.13	3.90978
47.14	3.93774
47.15	3.93281
47.16	3.91833
47.17	3.93643
47.18	3.92031
47.19	3.89892
47.2	3.91768
47.21	3.91274
47.22	3.90616
47.23	3.88412
47.24	3.91274
47.25	3.91307
47.26	3.90353
47.27	3.8907
47.28	3.93215
47.29	3.87557
47.3	3.893
47.31	3.91439
47.32	3.92162
47.33	3.90814
47.34	3.90846
47.35	3.92261
47.36	3.918
47.37	3.92425
47.38	3.87392
47.39	3.88511
47.4	3.91702
47.41	3.90452
47.42	3.93083
47.43	3.90715
47.44	3.91965
47.45	3.89235
47.46	3.8861
47.47	3.8907
47.48	3.86734
47.49	3.91833
47.5	3.91537
47.51	3.90616
47.52	3.89991
47.53	3.91669
47.54	3.89235
47.55	3.88873
47.56	3.92656
47.57	3.90846
47.58	3.92096
47.59	3.88281
47.6	3.90024
47.61	3.90254
47.62	3.92261
47.63	3.91702
47.64	3.868
47.65	3.88971
47.66	3.90583
47.67	3.90583
47.68	3.93379
47.69	3.91504
47.7	3.91439
47.71	3.88971
47.72	3.91143
47.73	3.90945
47.74	3.91768
47.75	3.87919
47.76	3.88445
47.77	3.92919
47.78	3.91866
47.79	3.9384
47.8	3.91768
47.81	3.92096
47.82	3.95485
47.83	3.93906
47.84	3.90517
47.85	3.90057
47.86	3.89531
47.87	3.89662
47.88	3.90583
47.89	3.86504
47.9	3.87853
47.91	3.87688
47.92	3.87228
47.93	3.89136
47.94	3.89596
47.95	3.90386
47.96	3.92425
47.97	3.90287
47.98	3.92031
47.99	3.91044
48	3.89629
48.01	3.9157
48.02	3.90715
48.03	3.91965
48.04	3.95287
48.05	3.94301
48.06	3.90715
48.07	3.90583
48.08	3.91899
48.09	3.91175
48.1	3.90386
48.11	3.91439
48.12	3.93314
48.13	3.893
48.14	3.92557
48.15	3.93149
48.16	3.89465
48.17	3.91768
48.18	3.93675
48.19	3.92393
48.2	3.93149
48.21	3.8861
48.22	3.8657
48.23	3.86866
48.24	3.90945
48.25	3.90156
48.26	3.90189
48.27	3.89267
48.28	3.93149
48.29	3.89333
48.3	3.86077
48.31	3.87688
48.32	3.89531
48.33	3.91768
48.34	3.89531
48.35	3.91241
48.36	3.93708
48.37	3.93248
48.38	3.89432
48.39	3.93807
48.4	3.93018
48.41	3.88708
48.42	3.92129
48.43	3.92294
48.44	3.86932
48.45	3.86603
48.46	3.8805
48.47	3.9305
48.48	3.89202
48.49	3.93149
48.5	3.93116
48.51	3.94202
48.52	3.9111
48.53	3.94004
48.54	3.85715
48.55	3.88017
48.56	3.90978
48.57	3.91011
48.58	3.92853
48.59	3.9111
48.6	3.92327
48.61	3.9657
48.62	3.92195
48.63	3.93939
48.64	3.93314
48.65	3.91274
48.66	3.90781
48.67	3.91537
48.68	3.89794
48.69	3.89531
48.7	3.89103
48.71	3.88182
48.72	3.89432
48.73	3.91011
48.74	3.94728
48.75	3.90353
48.76	3.91899
48.77	3.92393
48.78	3.92425
48.79	3.9588
48.8	3.93873
48.81	3.94037
48.82	3.89136
48.83	3.92689
48.84	3.88741
48.85	3.93149
48.86	3.94465
48.87	3.94268
48.88	3.93445
48.89	3.90814
48.9	3.92656
48.91	3.93182
48.92	3.95485
48.93	3.92458
48.94	3.92491
48.95	3.92064
48.96	3.89432
48.97	3.89892
48.98	3.94202
48.99	3.92952
49	3.8986
49.01	3.87952
49.02	3.85748
49.03	3.91768
49.04	3.91241
49.05	3.91011
49.06	3.90748
49.07	3.91373
49.08	3.90024
49.09	3.87425
49.1	3.91373
49.11	3.90649
49.12	3.90912
49.13	3.91208
49.14	3.89695
49.15	3.92524
49.16	3.91077
49.17	3.86307
49.18	3.90945
49.19	3.88478
49.2	3.92096
49.21	3.89498
49.22	3.92425
49.23	3.89662
49.24	3.89498
49.25	3.90287
49.26	3.9236
49.27	3.90945
49.28	3.91537
49.29	3.89629
49.3	3.85353
49.31	3.92261
49.32	3.89267
49.33	3.89794
49.34	3.88642
49.35	3.84827
49.36	3.9111
49.37	3.89564
49.38	3.92294
49.39	3.91274
49.4	3.9111
49.41	3.893
49.42	3.88642
49.43	3.92228
49.44	3.918
49.45	3.92195
49.46	3.88281
49.47	3.95156
49.48	3.93248
49.49	3.89399
49.5	3.89465
49.51	3.88215
49.52	3.86537
49.53	3.90254
49.54	3.8907
49.55	3.89136
49.56	3.93083
49.57	3.91636
49.58	3.93018
49.59	3.95419
49.6	3.92195
49.61	3.91899
49.62	3.91406
49.63	3.92129
49.64	3.92129
49.65	3.93511
49.66	3.93577
49.67	3.91899
49.68	3.93412
49.69	3.91406
49.7	3.89333
49.71	3.87129
49.72	3.89596
49.73	3.90748
49.74	3.92787
49.75	3.91439
49.76	3.87754
49.77	3.88346
49.78	3.89333
49.79	3.93248
49.8	3.91373
49.81	3.92722
49.82	3.89794
49.83	3.91998
49.84	3.88906
49.85	3.94695
49.86	3.90419
49.87	3.90353
49.88	3.95518
49.89	3.92491
49.9	3.95254
49.91	3.89728
49.92	3.87721
49.93	3.91439
49.94	3.918
49.95	3.88774
49.96	3.8782
49.97	3.89991
49.98	3.93708
49.99	3.91208
50	3.93281
