"BIO-KINE ASCII FILE"
"_COMMENT"	"MOS-500 Spectrometer"
"_COMMENT"	"Kinetics measurement"
"_COMMENT"	"Y Unit : Volt,  X Unit : s"
"_COMMENT"	"Excitation wavelength : 380 nm"
"_COMMENT"	"Fentes bandwidth =  1 nm"
"_COMMENT"	"HV= 1000V"
"_COMMENT"	"Timebase  1 =  .01 s   3001 pts"
"_SFM"	"SFM-400 /S  Advanced mode"
"_SFM"	"Ratio : S1: 2.5, S2: 0, S3: 0, S4: 1"
"_SFM"	"Content : S1: , S2: , S3: , S4:"
"_SFM"	"Concentration : S1: , S2: , S3: , S4:"
"_SFM"	"Total volume : 209 µl  Flow : 3.5 mL/s"
"_SFM"	"Acquisition start :  10 ms before stop"
"_SFM"	"cuve=FC-15, s1=10 ml , s2=10 ml , s3=10 ml , s4=1.9 ml"
"_UNITX"	"s"
"_UNITY"	"Volt"
"_DELTAX"	0
"_DATA"
1e-300	2.65908
0.01	2.60809
0.02	2.59691
0.03	2.66928
0.04	2.67356
0.05	2.70448
0.06	2.7331
0.07	2.76599
0.08	2.7502
0.09	2.72553
0.1	2.74757
0.11	2.76106
0.12	2.78705
0.13	2.79264
0.14	2.81632
0.15	2.81271
0.16	2.78738
0.17	2.79724
0.18	2.80152
0.19	2.80744
0.2	2.80448
0.21	2.81994
0.22	2.80251
0.23	2.81567
0.24	2.83014
0.25	2.81632
0.26	2.82093
0.27	2.82619
0.28	2.78836
0.29	2.79363
0.3	2.82685
0.31	2.83771
0.32	2.82652
0.33	2.80218
0.34	2.8002
0.35	2.80678
0.36	2.80711
0.37	2.82488
0.38	2.81271
0.39	2.8308
0.4	2.79626
0.41	2.81961
0.42	2.81665
0.43	2.80349
0.44	2.83146
0.45	2.81435
0.46	2.81698
0.47	2.81698
0.48	2.82619
0.49	2.83475
0.5	2.81435
0.51	2.7979
0.52	2.85843
0.53	2.83409
0.54	2.83803
0.55	2.82586
0.56	2.80284
0.57	2.80613
0.58	2.82323
0.59	2.83211
0.6	2.81567
0.61	2.81567
0.62	2.80218
0.63	2.81402
0.64	2.79856
0.65	2.83178
0.66	2.82915
0.67	2.80843
0.68	2.82521
0.69	2.81896
0.7	2.7979
0.71	2.79922
0.72	2.81567
0.73	2.8081
0.74	2.8354
0.75	2.84988
0.76	2.81797
0.77	2.79428
0.78	2.82323
0.79	2.80678
0.8	2.82422
0.81	2.83376
0.82	2.83409
0.83	2.77751
0.84	2.78113
0.85	2.80053
0.86	2.80349
0.87	2.8081
0.88	2.80514
0.89	2.8206
0.9	2.81139
0.91	2.83376
0.92	2.80613
0.93	2.7933
0.94	2.8104
0.95	2.79461
0.96	2.83573
0.97	2.84264
0.98	2.79395
0.99	2.82718
1	2.80218
1.01	2.79724
1.02	2.81665
1.03	2.82948
1.04	2.8354
1.05	2.8104
1.06	2.82685
1.07	2.79724
1.08	2.82882
1.09	2.82192
1.1	2.80251
1.11	2.78836
1.12	2.80317
1.13	2.78277
1.14	2.80974
1.15	2.81303
1.16	2.79001
1.17	2.78244
1.18	2.79395
1.19	2.83771
1.2	2.81205
1.21	2.82619
1.22	2.80909
1.23	2.80251
1.24	2.79297
1.25	2.77323
1.26	2.78441
1.27	2.79626
1.28	2.7956
1.29	2.81665
1.3	2.80613
1.31	2.79165
1.32	2.76698
1.33	2.8002
1.34	2.75612
1.35	2.80909
1.36	2.81205
1.37	2.78277
1.38	2.7683
1.39	2.8002
1.4	2.79757
1.41	2.75908
1.42	2.82784
1.43	2.84264
1.44	2.82093
1.45	2.79428
1.46	2.7502
1.47	2.78244
1.48	2.81994
1.49	2.79461
1.5	2.80481
1.51	2.78803
1.52	2.81698
1.53	2.81863
1.54	2.79692
1.55	2.78113
1.56	2.77849
1.57	2.76468
1.58	2.78244
1.59	2.80514
1.6	2.80843
1.61	2.77948
1.62	2.79297
1.63	2.77849
1.64	2.80053
1.65	2.80415
1.66	2.79757
1.67	2.78738
1.68	2.77981
1.69	2.79034
1.7	2.76764
1.71	2.77126
1.72	2.78441
1.73	2.77093
1.74	2.79856
1.75	2.80711
1.76	2.7956
1.77	2.77323
1.78	2.79132
1.79	2.75448
1.8	2.78211
1.81	2.78047
1.82	2.81205
1.83	2.81271
1.84	2.7877
1.85	2.7956
1.86	2.7854
1.87	2.78738
1.88	2.78409
1.89	2.77981
1.9	2.78507
1.91	2.78113
1.92	2.80349
1.93	2.81501
1.94	2.80678
1.95	2.79395
1.96	2.78507
1.97	2.78145
1.98	2.78474
1.99	2.78639
2	2.79461
2.01	2.81369
2.02	2.81731
2.03	2.82553
2.04	2.81007
2.05	2.80744
2.06	2.8058
2.07	2.81139
2.08	2.7808
2.09	2.76632
2.1	2.76632
2.11	2.78014
2.12	2.80119
2.13	2.79889
2.14	2.7854
2.15	2.80152
2.16	2.82948
2.17	2.79132
2.18	2.80481
2.19	2.82553
2.2	2.81139
2.21	2.75218
2.22	2.75119
2.23	2.75612
2.24	2.79231
2.25	2.79692
2.26	2.79297
2.27	2.83343
2.28	2.80909
2.29	2.82422
2.3	2.81139
2.31	2.7831
2.32	2.78803
2.33	2.75645
2.34	2.78211
2.35	2.78178
2.36	2.81106
2.37	2.80481
2.38	2.80481
2.39	2.80185
2.4	2.79889
2.41	2.75777
2.42	2.77191
2.43	2.76632
2.44	2.74231
2.45	2.78211
2.46	2.76764
2.47	2.78968
2.48	2.79889
2.49	2.80974
2.5	2.76698
2.51	2.77685
2.52	2.77126
2.53	2.80349
2.54	2.76007
2.55	2.78672
2.56	2.7956
2.57	2.78441
2.58	2.80349
2.59	2.79034
2.6	2.78343
2.61	2.79922
2.62	2.77455
2.63	2.80711
2.64	2.81501
2.65	2.79724
2.66	2.77389
2.67	2.79922
2.68	2.80547
2.69	2.7808
2.7	2.75119
2.71	2.7729
2.72	2.77093
2.73	2.77257
2.74	2.77487
2.75	2.74165
2.76	2.79692
2.77	2.81567
2.78	2.79626
2.79	2.80974
2.8	2.78211
2.81	2.80152
2.82	2.76369
2.83	2.77224
2.84	2.76895
2.85	2.76073
2.86	2.79165
2.87	2.78935
2.88	2.75612
2.89	2.75185
2.9	2.79001
2.91	2.76698
2.92	2.7683
2.93	2.81435
2.94	2.79001
2.95	2.78968
2.96	2.75481
2.97	2.7956
2.98	2.77487
2.99	2.77652
3	2.79034
3.01	2.7377
3.02	2.7479
3.03	2.80284
3.04	2.79724
3.05	2.7558
3.06	2.7854
3.07	2.77816
3.08	2.8002
3.09	2.77093
3.1	2.75316
3.11	2.78343
3.12	2.79823
3.13	2.78211
3.14	2.78705
3.15	2.7627
3.16	2.76731
3.17	2.7979
3.18	2.80613
3.19	2.78113
3.2	2.77751
3.21	2.76764
3.22	2.77981
3.23	2.78573
3.24	2.77356
3.25	2.7752
3.26	2.75876
3.27	2.7558
3.28	2.77257
3.29	2.79889
3.3	2.78639
3.31	2.76632
3.32	2.77586
3.33	2.75547
3.34	2.7854
3.35	2.7479
3.36	2.73145
3.37	2.75941
3.38	2.76862
3.39	2.76928
3.4	2.77323
3.41	2.76303
3.42	2.76928
3.43	2.75547
3.44	2.74823
3.45	2.77652
3.46	2.77389
3.47	2.77257
3.48	2.78244
3.49	2.78803
3.5	2.77586
3.51	2.76007
3.52	2.76534
3.53	2.77586
3.54	2.76862
3.55	2.80185
3.56	2.79593
3.57	2.76237
3.58	2.78507
3.59	2.77257
3.6	2.77487
3.61	2.75119
3.62	2.77027
3.63	2.76369
3.64	2.80974
3.65	2.78343
3.66	2.78902
3.67	2.76797
3.68	2.76599
3.69	2.79099
3.7	2.76961
3.71	2.75481
3.72	2.76895
3.73	2.76665
3.74	2.7877
3.75	2.75612
3.76	2.73112
3.77	2.78343
3.78	2.78573
3.79	2.76468
3.8	2.76862
3.81	2.78113
3.82	2.77487
3.83	2.76205
3.84	2.78244
3.85	2.74658
3.86	2.73178
3.87	2.75514
3.88	2.77126
3.89	2.7604
3.9	2.79231
3.91	2.75086
3.92	2.7752
3.93	2.79988
3.94	2.78376
3.95	2.75612
3.96	2.73639
3.97	2.76665
3.98	2.77323
3.99	2.79066
4	2.74626
4.01	2.78705
4.02	2.80415
4.03	2.81961
4.04	2.77126
4.05	2.74395
4.06	2.75086
4.07	2.76731
4.08	2.80119
4.09	2.74856
4.1	2.7502
4.11	2.77816
4.12	2.76731
4.13	2.75349
4.14	2.76402
4.15	2.76139
4.16	2.74231
4.17	2.75218
4.18	2.74066
4.19	2.7604
4.2	2.76599
4.21	2.77126
4.22	2.76698
4.23	2.7808
4.24	2.77455
4.25	2.76106
4.26	2.7854
4.27	2.79724
4.28	2.74033
4.29	2.75119
4.3	2.77389
4.31	2.77619
4.32	2.78935
4.33	2.79099
4.34	2.82488
4.35	2.78474
4.36	2.80481
4.37	2.75251
4.38	2.73277
4.39	2.76862
4.4	2.75612
4.41	2.77487
4.42	2.7854
4.43	2.77323
4.44	2.74231
4.45	2.75514
4.46	2.74724
4.47	2.76698
4.48	2.75152
4.49	2.75218
4.5	2.7479
4.51	2.75514
4.52	2.76205
4.53	2.78507
4.54	2.80218
4.55	2.76007
4.56	2.75843
4.57	2.7604
4.58	2.73573
4.59	2.74198
4.6	2.74494
4.61	2.76994
4.62	2.78047
4.63	2.77981
4.64	2.73672
4.65	2.74395
4.66	2.74362
4.67	2.76534
4.68	2.75514
4.69	2.77323
4.7	2.7854
4.71	2.76994
4.72	2.74362
4.73	2.75053
4.74	2.76797
4.75	2.76139
4.76	2.74922
4.77	2.76895
4.78	2.7331
4.79	2.75514
4.8	2.76106
4.81	2.75876
4.82	2.77257
4.83	2.77422
4.84	2.73606
4.85	2.75514
4.86	2.76435
4.87	2.74626
4.88	2.7377
4.89	2.77224
4.9	2.77816
4.91	2.75053
4.92	2.76862
4.93	2.76402
4.94	2.75514
4.95	2.7627
4.96	2.74461
4.97	2.76369
4.98	2.77816
4.99	2.7479
5	2.76402
5.01	2.76139
5.02	2.75941
5.03	2.73935
5.04	2.7581
5.05	2.75645
5.06	2.7354
5.07	2.71829
5.08	2.77586
5.09	2.74395
5.1	2.74889
5.11	2.74264
5.12	2.72356
5.13	2.72487
5.14	2.75316
5.15	2.72454
5.16	2.75152
5.17	2.77257
5.18	2.7581
5.19	2.72685
5.2	2.74658
5.21	2.74658
5.22	2.73902
5.23	2.74362
5.24	2.7479
5.25	2.75349
5.26	2.74428
5.27	2.73573
5.28	2.75678
5.29	2.72915
5.3	2.75908
5.31	2.79066
5.32	2.77751
5.33	2.78606
5.34	2.74297
5.35	2.73014
5.36	2.73606
5.37	2.75382
5.38	2.75744
5.39	2.75053
5.4	2.76534
5.41	2.75152
5.42	2.75119
5.43	2.74362
5.44	2.7377
5.45	2.7479
5.46	2.77257
5.47	2.75711
5.48	2.74033
5.49	2.75941
5.5	2.77356
5.51	2.77389
5.52	2.7229
5.53	2.75876
5.54	2.72619
5.55	2.75185
5.56	2.72125
5.57	2.73672
5.58	2.73211
5.59	2.72389
5.6	2.69987
5.61	2.73507
5.62	2.75711
5.63	2.7604
5.64	2.76172
5.65	2.73935
5.66	2.74889
5.67	2.72948
5.68	2.76106
5.69	2.7331
5.7	2.76007
5.71	2.72948
5.72	2.72948
5.73	2.74099
5.74	2.74165
5.75	2.74757
5.76	2.73639
5.77	2.77981
5.78	2.75777
5.79	2.77224
5.8	2.77224
5.81	2.7581
5.82	2.73869
5.83	2.74987
5.84	2.74691
5.85	2.74527
5.86	2.73606
5.87	2.74329
5.88	2.72981
5.89	2.73277
5.9	2.72257
5.91	2.73869
5.92	2.74823
5.93	2.73573
5.94	2.72586
5.95	2.75547
5.96	2.75777
5.97	2.76237
5.98	2.74198
5.99	2.71632
6	2.74955
6.01	2.71895
6.02	2.73145
6.03	2.76435
6.04	2.72718
6.05	2.75382
6.06	2.74527
6.07	2.72586
6.08	2.72915
6.09	2.7502
6.1	2.73507
6.11	2.73935
6.12	2.73704
6.13	2.74066
6.14	2.75481
6.15	2.73573
6.16	2.71928
6.17	2.76862
6.18	2.76566
6.19	2.78639
6.2	2.73507
6.21	2.7456
6.22	2.75481
6.23	2.74231
6.24	2.74889
6.25	2.72718
6.26	2.7331
6.27	2.76731
6.28	2.74132
6.29	2.7354
6.3	2.76797
6.31	2.74362
6.32	2.7502
6.33	2.75152
6.34	2.7456
6.35	2.75448
6.36	2.72915
6.37	2.71106
6.38	2.74724
6.39	2.76862
6.4	2.74593
6.41	2.72652
6.42	2.73935
6.43	2.74001
6.44	2.7683
6.45	2.72586
6.46	2.73704
6.47	2.74889
6.48	2.76237
6.49	2.7479
6.5	2.77981
6.51	2.73902
6.52	2.73277
6.53	2.72619
6.54	2.75547
6.55	2.72652
6.56	2.75119
6.57	2.73474
6.58	2.72586
6.59	2.73869
6.6	2.74494
6.61	2.73474
6.62	2.74362
6.63	2.73869
6.64	2.75612
6.65	2.74066
6.66	2.72981
6.67	2.72783
6.68	2.73079
6.69	2.76994
6.7	2.74033
6.71	2.73079
6.72	2.75908
6.73	2.74395
6.74	2.69987
6.75	2.7331
6.76	2.74823
6.77	2.74362
6.78	2.73836
6.79	2.74428
6.8	2.70415
6.81	2.73178
6.82	2.7479
6.83	2.73277
6.84	2.72224
6.85	2.75316
6.86	2.72718
6.87	2.73606
6.88	2.77586
6.89	2.76731
6.9	2.74691
6.91	2.73573
6.92	2.73079
6.93	2.75908
6.94	2.72586
6.95	2.76501
6.96	2.74198
6.97	2.72093
6.98	2.75448
6.99	2.72257
7	2.75185
7.01	2.76797
7.02	2.74955
7.03	2.74955
7.04	2.72619
7.05	2.74395
7.06	2.75218
7.07	2.75185
7.08	2.74922
7.09	2.67849
7.1	2.71829
7.11	2.72783
7.12	2.71895
7.13	2.74922
7.14	2.7275
7.15	2.72553
7.16	2.74066
7.17	2.72718
7.18	2.7502
7.19	2.74297
7.2	2.75086
7.21	2.73047
7.22	2.70218
7.23	2.73014
7.24	2.7456
7.25	2.72027
7.26	2.72586
7.27	2.72652
7.28	2.7331
7.29	2.74856
7.3	2.74922
7.31	2.76073
7.32	2.73277
7.33	2.72718
7.34	2.7354
7.35	2.7354
7.36	2.75349
7.37	2.75053
7.38	2.73343
7.39	2.7252
7.4	2.71961
7.41	2.76698
7.42	2.74593
7.43	2.75251
7.44	2.74231
7.45	2.76501
7.46	2.72981
7.47	2.71829
7.48	2.71928
7.49	2.74955
7.5	2.73474
7.51	2.74856
7.52	2.75316
7.53	2.73474
7.54	2.72882
7.55	2.73672
7.56	2.74922
7.57	2.71139
7.58	2.73145
7.59	2.75053
7.6	2.76534
7.61	2.7456
7.62	2.71632
7.63	2.73639
7.64	2.74362
7.65	2.7558
7.66	2.71928
7.67	2.73935
7.68	2.77915
7.69	2.73935
7.7	2.72125
7.71	2.74297
7.72	2.71204
7.73	2.73211
7.74	2.72224
7.75	2.7331
7.76	2.72191
7.77	2.73737
7.78	2.73737
7.79	2.74165
7.8	2.74362
7.81	2.73244
7.82	2.74987
7.83	2.74264
7.84	2.72093
7.85	2.72224
7.86	2.72158
7.87	2.69527
7.88	2.69954
7.89	2.70119
7.9	2.72125
7.91	2.73672
7.92	2.7502
7.93	2.75415
7.94	2.72882
7.95	2.75251
7.96	2.74066
7.97	2.73277
7.98	2.75349
7.99	2.75908
8	2.73704
8.01	2.73803
8.02	2.74198
8.03	2.76303
8.04	2.7229
8.05	2.74033
8.06	2.70678
8.07	2.69889
8.08	2.72849
8.09	2.7275
8.1	2.72553
8.11	2.73079
8.12	2.70119
8.13	2.72948
8.14	2.72981
8.15	2.73014
8.16	2.74889
8.17	2.7229
8.18	2.7331
8.19	2.74099
8.2	2.72783
8.21	2.74626
8.22	2.73441
8.23	2.71599
8.24	2.7252
8.25	2.71698
8.26	2.72487
8.27	2.70612
8.28	2.73704
8.29	2.72093
8.3	2.69198
8.31	2.73408
8.32	2.73869
8.33	2.73869
8.34	2.75941
8.35	2.74626
8.36	2.74724
8.37	2.69856
8.38	2.73639
8.39	2.71566
8.4	2.71764
8.41	2.71435
8.42	2.72487
8.43	2.72125
8.44	2.70053
8.45	2.72783
8.46	2.72389
8.47	2.68967
8.48	2.7206
8.49	2.73211
8.5	2.73343
8.51	2.71402
8.52	2.73178
8.53	2.73343
8.54	2.73079
8.55	2.73277
8.56	2.71829
8.57	2.71829
8.58	2.74428
8.59	2.74362
8.6	2.7206
8.61	2.72553
8.62	2.7377
8.63	2.72718
8.64	2.72257
8.65	2.72685
8.66	2.68967
8.67	2.73211
8.68	2.72389
8.69	2.72487
8.7	2.73014
8.71	2.72487
8.72	2.71829
8.73	2.70875
8.74	2.6956
8.75	2.7081
8.76	2.70908
8.77	2.71928
8.78	2.69
8.79	2.7354
8.8	2.71106
8.81	2.7558
8.82	2.74987
8.83	2.73474
8.84	2.71468
8.85	2.6956
8.86	2.71632
8.87	2.71829
8.88	2.75283
8.89	2.73704
8.9	2.73376
8.91	2.72685
8.92	2.7025
8.93	2.71862
8.94	2.72487
8.95	2.73836
8.96	2.71698
8.97	2.73474
8.98	2.72849
8.99	2.71698
9	2.7229
9.01	2.72619
9.02	2.72783
9.03	2.72718
9.04	2.6956
9.05	2.71961
9.06	2.74626
9.07	2.74494
9.08	2.71533
9.09	2.72586
9.1	2.71073
9.11	2.70415
9.12	2.71994
9.13	2.72158
9.14	2.73244
9.15	2.71829
9.16	2.73704
9.17	2.72323
9.18	2.72257
9.19	2.71665
9.2	2.73277
9.21	2.72356
9.22	2.72816
9.23	2.73606
9.24	2.69658
9.25	2.69856
9.26	2.72783
9.27	2.70053
9.28	2.7127
9.29	2.75514
9.3	2.73244
9.31	2.74494
9.32	2.74527
9.33	2.72125
9.34	2.68935
9.35	2.73803
9.36	2.73606
9.37	2.74922
9.38	2.72356
9.39	2.74066
9.4	2.73968
9.41	2.74889
9.42	2.71369
9.43	2.69856
9.44	2.71237
9.45	2.72816
9.46	2.71764
9.47	2.71862
9.48	2.73047
9.49	2.74198
9.5	2.71336
9.51	2.71336
9.52	2.70481
9.53	2.72027
9.54	2.74066
9.55	2.72685
9.56	2.74856
9.57	2.71599
9.58	2.71566
9.59	2.70546
9.6	2.72586
9.61	2.7127
9.62	2.73902
9.63	2.70744
9.64	2.71237
9.65	2.72027
9.66	2.72816
9.67	2.69658
9.68	2.72356
9.69	2.76205
9.7	2.73935
9.71	2.71928
9.72	2.71237
9.73	2.71698
9.74	2.71073
9.75	2.70086
9.76	2.73244
9.77	2.7081
9.78	2.72553
9.79	2.71106
9.8	2.74001
9.81	2.70645
9.82	2.70612
9.83	2.7127
9.84	2.72356
9.85	2.72093
9.86	2.72191
9.87	2.71829
9.88	2.7377
9.89	2.72619
9.9	2.7252
9.91	2.69132
9.92	2.71204
9.93	2.69099
9.94	2.74231
9.95	2.76007
9.96	2.73737
9.97	2.73178
9.98	2.68869
9.99	2.71369
10	2.71829
10.01	2.69658
10.02	2.7104
10.03	2.74955
10.04	2.7025
10.05	2.71566
10.06	2.70316
10.07	2.71171
10.08	2.71007
10.09	2.73014
10.1	2.73803
10.11	2.71204
10.12	2.71204
10.13	2.69527
10.14	2.70645
10.15	2.71632
10.16	2.74132
10.17	2.73606
10.18	2.72422
10.19	2.72849
10.2	2.72224
10.21	2.70481
10.22	2.69395
10.23	2.73573
10.24	2.71106
10.25	2.73343
10.26	2.71303
10.27	2.715
10.28	2.70843
10.29	2.71369
10.3	2.72323
10.31	2.7558
10.32	2.7479
10.33	2.72553
10.34	2.71533
10.35	2.75152
10.36	2.75908
10.37	2.71435
10.38	2.7331
10.39	2.74099
10.4	2.74165
10.41	2.7081
10.42	2.71369
10.43	2.72191
10.44	2.69691
10.45	2.71961
10.46	2.71336
10.47	2.73376
10.48	2.7002
10.49	2.70481
10.5	2.73573
10.51	2.72323
10.52	2.71731
10.53	2.72323
10.54	2.72389
10.55	2.72454
10.56	2.70448
10.57	2.71237
10.58	2.72553
10.59	2.7502
10.6	2.74823
10.61	2.72553
10.62	2.70678
10.63	2.69889
10.64	2.68902
10.65	2.71533
10.66	2.69033
10.67	2.70119
10.68	2.72849
10.69	2.70283
10.7	2.72356
10.71	2.74362
10.72	2.71928
10.73	2.7229
10.74	2.73968
10.75	2.72586
10.76	2.72816
10.77	2.74329
10.78	2.71797
10.79	2.69362
10.8	2.73277
10.81	2.71862
10.82	2.72027
10.83	2.72619
10.84	2.73737
10.85	2.74033
10.86	2.72224
10.87	2.74231
10.88	2.72224
10.89	2.7377
10.9	2.74889
10.91	2.70185
10.92	2.75086
10.93	2.70843
10.94	2.67619
10.95	2.72323
10.96	2.72849
10.97	2.72158
10.98	2.72027
10.99	2.72323
11	2.68375
11.01	2.69362
11.02	2.68507
11.03	2.72093
11.04	2.73836
11.05	2.73639
11.06	2.70744
11.07	2.71731
11.08	2.7206
11.09	2.69691
11.1	2.70711
11.11	2.70843
11.12	2.74132
11.13	2.75086
11.14	2.72224
11.15	2.71961
11.16	2.70316
11.17	2.68342
11.18	2.72718
11.19	2.715
11.2	2.73606
11.21	2.71237
11.22	2.71402
11.23	2.69856
11.24	2.70415
11.25	2.70415
11.26	2.72487
11.27	2.73014
11.28	2.73047
11.29	2.70218
11.3	2.73112
11.31	2.73968
11.32	2.70481
11.33	2.73145
11.34	2.75349
11.35	2.7206
11.36	2.72257
11.37	2.67619
11.38	2.68408
11.39	2.70316
11.4	2.70382
11.41	2.69527
11.42	2.75481
11.43	2.72356
11.44	2.71073
11.45	2.7104
11.46	2.70283
11.47	2.70744
11.48	2.74856
11.49	2.72224
11.5	2.72224
11.51	2.73079
11.52	2.715
11.53	2.69264
11.54	2.69033
11.55	2.7206
11.56	2.72454
11.57	2.72948
11.58	2.71731
11.59	2.70678
11.6	2.70316
11.61	2.71204
11.62	2.68935
11.63	2.70382
11.64	2.74757
11.65	2.7558
11.66	2.70678
11.67	2.69428
11.68	2.68408
11.69	2.74001
11.7	2.71566
11.71	2.73244
11.72	2.71961
11.73	2.66204
11.74	2.68507
11.75	2.71139
11.76	2.72718
11.77	2.71139
11.78	2.70119
11.79	2.69658
11.8	2.73507
11.81	2.70119
11.82	2.72718
11.83	2.70185
11.84	2.70283
11.85	2.73112
11.86	2.72356
11.87	2.74527
11.88	2.70941
11.89	2.72158
11.9	2.73935
11.91	2.71073
11.92	2.69757
11.93	2.68935
11.94	2.68375
11.95	2.69889
11.96	2.70875
11.97	2.6854
11.98	2.70382
11.99	2.71303
12	2.70843
12.01	2.70086
12.02	2.70941
12.03	2.71468
12.04	2.72093
12.05	2.72257
12.06	2.73047
12.07	2.72125
12.08	2.7104
12.09	2.74593
12.1	2.72027
12.11	2.71566
12.12	2.71961
12.13	2.70382
12.14	2.72849
12.15	2.70546
12.16	2.7252
12.17	2.72158
12.18	2.7025
12.19	2.70382
12.2	2.7025
12.21	2.70711
12.22	2.69658
12.23	2.71468
12.24	2.72158
12.25	2.74165
12.26	2.73145
12.27	2.71007
12.28	2.71764
12.29	2.7025
12.3	2.7252
12.31	2.72586
12.32	2.70481
12.33	2.70218
12.34	2.71106
12.35	2.71698
12.36	2.74033
12.37	2.74527
12.38	2.72389
12.39	2.69132
12.4	2.73145
12.41	2.74033
12.42	2.72356
12.43	2.72652
12.44	2.73803
12.45	2.74593
12.46	2.72389
12.47	2.71171
12.48	2.70908
12.49	2.74955
12.5	2.72323
12.51	2.72454
12.52	2.70053
12.53	2.69592
12.54	2.70316
12.55	2.74626
12.56	2.72619
12.57	2.74099
12.58	2.7104
12.59	2.68935
12.6	2.71862
12.61	2.70711
12.62	2.71599
12.63	2.69296
12.64	2.71468
12.65	2.71665
12.66	2.70744
12.67	2.72619
12.68	2.68441
12.69	2.71533
12.7	2.7127
12.71	2.72652
12.72	2.71599
12.73	2.68112
12.74	2.70941
12.75	2.7127
12.76	2.72356
12.77	2.71599
12.78	2.70744
12.79	2.7104
12.8	2.74329
12.81	2.70579
12.82	2.73014
12.83	2.73606
12.84	2.74066
12.85	2.72718
12.86	2.70382
12.87	2.71829
12.88	2.71106
12.89	2.70843
12.9	2.70415
12.91	2.70974
12.92	2.71106
12.93	2.69165
12.94	2.72257
12.95	2.7229
12.96	2.73704
12.97	2.69691
12.98	2.69296
12.99	2.72257
13	2.72454
13.01	2.69823
13.02	2.69724
13.03	2.71402
13.04	2.71402
13.05	2.73079
13.06	2.7252
13.07	2.72652
13.08	2.73376
13.09	2.70843
13.1	2.6979
13.11	2.69494
13.12	2.71731
13.13	2.70119
13.14	2.66994
13.15	2.7025
13.16	2.69198
13.17	2.70053
13.18	2.68474
13.19	2.70119
13.2	2.70678
13.21	2.6831
13.22	2.68474
13.23	2.7252
13.24	2.74461
13.25	2.74461
13.26	2.68704
13.27	2.70218
13.28	2.7229
13.29	2.73672
13.3	2.6956
13.31	2.71336
13.32	2.70185
13.33	2.73178
13.34	2.72586
13.35	2.71468
13.36	2.69428
13.37	2.71336
13.38	2.74461
13.39	2.70218
13.4	2.69921
13.41	2.74461
13.42	2.69724
13.43	2.69592
13.44	2.70415
13.45	2.71533
13.46	2.70283
13.47	2.72125
13.48	2.7002
13.49	2.70514
13.5	2.6706
13.51	2.69856
13.52	2.66829
13.53	2.66533
13.54	2.68869
13.55	2.69691
13.56	2.70448
13.57	2.74494
13.58	2.70382
13.59	2.72948
13.6	2.73474
13.61	2.69033
13.62	2.72389
13.63	2.70448
13.64	2.71171
13.65	2.72389
13.66	2.70678
13.67	2.73573
13.68	2.69461
13.69	2.71007
13.7	2.67816
13.71	2.71468
13.72	2.71237
13.73	2.69625
13.74	2.69296
13.75	2.70974
13.76	2.71698
13.77	2.69724
13.78	2.67421
13.79	2.69592
13.8	2.69329
13.81	2.71073
13.82	2.70645
13.83	2.69691
13.84	2.72948
13.85	2.71994
13.86	2.74264
13.87	2.72191
13.88	2.68013
13.89	2.71665
13.9	2.71336
13.91	2.72422
13.92	2.70678
13.93	2.69658
13.94	2.71599
13.95	2.72882
13.96	2.71599
13.97	2.70119
13.98	2.71731
13.99	2.71862
14	2.71435
14.01	2.72718
14.02	2.74724
14.03	2.72323
14.04	2.69856
14.05	2.70283
14.06	2.68967
14.07	2.70185
14.08	2.69066
14.09	2.70546
14.1	2.69296
14.11	2.71171
14.12	2.71139
14.13	2.69625
14.14	2.69231
14.15	2.68737
14.16	2.68902
14.17	2.71435
14.18	2.68013
14.19	2.6854
14.2	2.68902
14.21	2.71566
14.22	2.67553
14.23	2.71073
14.24	2.71007
14.25	2.70053
14.26	2.70415
14.27	2.68869
14.28	2.69461
14.29	2.68342
14.3	2.68441
14.31	2.73211
14.32	2.74198
14.33	2.72356
14.34	2.70678
14.35	2.72619
14.36	2.7081
14.37	2.68967
14.38	2.6877
14.39	2.70777
14.4	2.66698
14.41	2.69592
14.42	2.71106
14.43	2.73639
14.44	2.73573
14.45	2.70941
14.46	2.71994
14.47	2.66369
14.48	2.68244
14.49	2.7025
14.5	2.72422
14.51	2.74264
14.52	2.73737
14.53	2.71632
14.54	2.69954
14.55	2.69757
14.56	2.69428
14.57	2.68408
14.58	2.7104
14.59	2.72816
14.6	2.71829
14.61	2.71533
14.62	2.70974
14.63	2.7081
14.64	2.70744
14.65	2.69362
14.66	2.67421
14.67	2.69494
14.68	2.72323
14.69	2.70908
14.7	2.71106
14.71	2.69625
14.72	2.74428
14.73	2.68441
14.74	2.67356
14.75	2.69921
14.76	2.68836
14.77	2.69724
14.78	2.69592
14.79	2.72619
14.8	2.71829
14.81	2.69592
14.82	2.7002
14.83	2.71764
14.84	2.70612
14.85	2.69954
14.86	2.68145
14.87	2.70678
14.88	2.72783
14.89	2.71533
14.9	2.70645
14.91	2.71665
14.92	2.71862
14.93	2.7206
14.94	2.65842
14.95	2.70514
14.96	2.70612
14.97	2.69395
14.98	2.70875
14.99	2.70185
15	2.69066
15.01	2.70678
15.02	2.72652
15.03	2.73047
15.04	2.70481
15.05	2.6854
15.06	2.69165
15.07	2.71797
15.08	2.73441
15.09	2.68606
15.1	2.72816
15.11	2.6854
15.12	2.67619
15.13	2.6979
15.14	2.7354
15.15	2.68046
15.16	2.71237
15.17	2.71829
15.18	2.70283
15.19	2.7206
15.2	2.71994
15.21	2.69823
15.22	2.67948
15.23	2.72915
15.24	2.71303
15.25	2.72586
15.26	2.70316
15.27	2.69198
15.28	2.70316
15.29	2.70579
15.3	2.70086
15.31	2.69395
15.32	2.7025
15.33	2.71468
15.34	2.70974
15.35	2.73474
15.36	2.71862
15.37	2.7081
15.38	2.71731
15.39	2.70185
15.4	2.70908
15.41	2.71665
15.42	2.68507
15.43	2.70678
15.44	2.68606
15.45	2.70974
15.46	2.73079
15.47	2.69823
15.48	2.69165
15.49	2.71961
15.5	2.72816
15.51	2.71632
15.52	2.70546
15.53	2.71171
15.54	2.70448
15.55	2.68836
15.56	2.72323
15.57	2.72619
15.58	2.7354
15.59	2.6979
15.6	2.71303
15.61	2.71698
15.62	2.73474
15.63	2.715
15.64	2.69033
15.65	2.72849
15.66	2.72783
15.67	2.71928
15.68	2.71237
15.69	2.68704
15.7	2.67257
15.71	2.70283
15.72	2.72718
15.73	2.70941
15.74	2.69362
15.75	2.70283
15.76	2.67487
15.77	2.69066
15.78	2.71698
15.79	2.72158
15.8	2.68737
15.81	2.68441
15.82	2.70152
15.83	2.71665
15.84	2.71632
15.85	2.70053
15.86	2.67421
15.87	2.70645
15.88	2.71764
15.89	2.67948
15.9	2.70119
15.91	2.69658
15.92	2.70777
15.93	2.72718
15.94	2.715
15.95	2.71961
15.96	2.70086
15.97	2.7275
15.98	2.72849
15.99	2.68935
16	2.68606
16.01	2.69987
16.02	2.70415
16.03	2.71106
16.04	2.7104
16.05	2.67783
16.06	2.69527
16.07	2.70941
16.08	2.6877
16.09	2.73803
16.1	2.69395
16.11	2.70645
16.12	2.71533
16.13	2.71204
16.14	2.70218
16.15	2.70546
16.16	2.69592
16.17	2.7127
16.18	2.6854
16.19	2.71204
16.2	2.67092
16.21	2.7002
16.22	2.6854
16.23	2.69033
16.24	2.70711
16.25	2.69987
16.26	2.72849
16.27	2.72948
16.28	2.71171
16.29	2.71862
16.3	2.68211
16.31	2.67257
16.32	2.69362
16.33	2.70612
16.34	2.70086
16.35	2.7275
16.36	2.70185
16.37	2.71007
16.38	2.69625
16.39	2.72125
16.4	2.70086
16.41	2.68441
16.42	2.70744
16.43	2.70579
16.44	2.71139
16.45	2.70645
16.46	2.69757
16.47	2.69066
16.48	2.70974
16.49	2.72553
16.5	2.70941
16.51	2.69954
16.52	2.69428
16.53	2.70119
16.54	2.71599
16.55	2.72125
16.56	2.69592
16.57	2.68869
16.58	2.71731
16.59	2.70777
16.6	2.70283
16.61	2.69823
16.62	2.70316
16.63	2.68967
16.64	2.70481
16.65	2.69066
16.66	2.68145
16.67	2.70481
16.68	2.68013
16.69	2.69033
16.7	2.6956
16.71	2.73112
16.72	2.71928
16.73	2.69724
16.74	2.67553
16.75	2.70941
16.76	2.72422
16.77	2.7025
16.78	2.68013
16.79	2.67717
16.8	2.7025
16.81	2.6831
16.82	2.68178
16.83	2.71435
16.84	2.69954
16.85	2.67454
16.86	2.69987
16.87	2.72323
16.88	2.7354
16.89	2.72224
16.9	2.71369
16.91	2.71402
16.92	2.69658
16.93	2.70316
16.94	2.68836
16.95	2.7104
16.96	2.71303
16.97	2.74658
16.98	2.70678
16.99	2.67553
17	2.69099
17.01	2.70382
17.02	2.70185
17.03	2.69
17.04	2.69461
17.05	2.69165
17.06	2.67882
17.07	2.68211
17.08	2.67981
17.09	2.70283
17.1	2.71797
17.11	2.71435
17.12	2.70514
17.13	2.71204
17.14	2.68803
17.15	2.68639
17.16	2.67717
17.17	2.67652
17.18	2.69198
17.19	2.67553
17.2	2.70612
17.21	2.68342
17.22	2.72158
17.23	2.70908
17.24	2.67224
17.25	2.7104
17.26	2.70843
17.27	2.68079
17.28	2.67356
17.29	2.66237
17.3	2.69395
17.31	2.71007
17.32	2.74033
17.33	2.71895
17.34	2.68013
17.35	2.68803
17.36	2.70152
17.37	2.68013
17.38	2.68902
17.39	2.68836
17.4	2.69856
17.41	2.68408
17.42	2.66665
17.43	2.69757
17.44	2.71632
17.45	2.71797
17.46	2.70645
17.47	2.68902
17.48	2.66434
17.49	2.69757
17.5	2.71007
17.51	2.70218
17.52	2.69066
17.53	2.71204
17.54	2.71632
17.55	2.68836
17.56	2.69165
17.57	2.69033
17.58	2.71171
17.59	2.70218
17.6	2.68441
17.61	2.69987
17.62	2.68244
17.63	2.69527
17.64	2.71468
17.65	2.68704
17.66	2.68967
17.67	2.68671
17.68	2.67915
17.69	2.68704
17.7	2.71106
17.71	2.69231
17.72	2.68046
17.73	2.71829
17.74	2.7275
17.75	2.72586
17.76	2.70843
17.77	2.6729
17.78	2.69527
17.79	2.69296
17.8	2.73145
17.81	2.71599
17.82	2.71402
17.83	2.70086
17.84	2.69362
17.85	2.68704
17.86	2.6729
17.87	2.69625
17.88	2.69889
17.89	2.70349
17.9	2.66665
17.91	2.71139
17.92	2.68803
17.93	2.69592
17.94	2.69494
17.95	2.71961
17.96	2.68671
17.97	2.67915
17.98	2.69592
17.99	2.7104
18	2.71468
18.01	2.67257
18.02	2.67981
18.03	2.69757
18.04	2.66928
18.05	2.70612
18.06	2.72356
18.07	2.69264
18.08	2.75645
18.09	2.73112
18.1	2.70777
18.11	2.69691
18.12	2.68902
18.13	2.6752
18.14	2.70843
18.15	2.69231
18.16	2.68507
18.17	2.70744
18.18	2.65744
18.19	2.6956
18.2	2.72027
18.21	2.72816
18.22	2.72158
18.23	2.6877
18.24	2.70843
18.25	2.68441
18.26	2.71204
18.27	2.7206
18.28	2.70645
18.29	2.70152
18.3	2.67257
18.31	2.68967
18.32	2.71599
18.33	2.7081
18.34	2.71731
18.35	2.70218
18.36	2.73507
18.37	2.69823
18.38	2.71599
18.39	2.6956
18.4	2.68606
18.41	2.68079
18.42	2.68441
18.43	2.67586
18.44	2.71204
18.45	2.71204
18.46	2.68441
18.47	2.71468
18.48	2.71369
18.49	2.70119
18.5	2.67191
18.51	2.69231
18.52	2.69198
18.53	2.72487
18.54	2.69954
18.55	2.67421
18.56	2.68967
18.57	2.68967
18.58	2.69066
18.59	2.66731
18.6	2.68902
18.61	2.67915
18.62	2.68803
18.63	2.68408
18.64	2.70481
18.65	2.68967
18.66	2.70218
18.67	2.68178
18.68	2.67981
18.69	2.70349
18.7	2.70283
18.71	2.69132
18.72	2.69066
18.73	2.66895
18.74	2.69395
18.75	2.67027
18.76	2.67421
18.77	2.68441
18.78	2.68573
18.79	2.67388
18.8	2.67652
18.81	2.70546
18.82	2.70579
18.83	2.70612
18.84	2.73244
18.85	2.70415
18.86	2.70744
18.87	2.67586
18.88	2.71731
18.89	2.71895
18.9	2.70711
18.91	2.74527
18.92	2.69954
18.93	2.69889
18.94	2.65711
18.95	2.70843
18.96	2.6877
18.97	2.69198
18.98	2.66599
18.99	2.68178
19	2.69625
19.01	2.6831
19.02	2.71468
19.03	2.66862
19.04	2.6854
19.05	2.68639
19.06	2.69264
19.07	2.65612
19.08	2.67717
19.09	2.72487
19.1	2.6854
19.11	2.65546
19.12	2.67191
19.13	2.66961
19.14	2.68869
19.15	2.67125
19.16	2.67882
19.17	2.68869
19.18	2.70941
19.19	2.69658
19.2	2.70514
19.21	2.66599
19.22	2.69395
19.23	2.71435
19.24	2.68408
19.25	2.68507
19.26	2.70283
19.27	2.69592
19.28	2.68145
19.29	2.68441
19.3	2.69823
19.31	2.68079
19.32	2.70908
19.33	2.72586
19.34	2.70579
19.35	2.68869
19.36	2.67915
19.37	2.70612
19.38	2.69494
19.39	2.67092
19.4	2.71402
19.41	2.68935
19.42	2.69165
19.43	2.67224
19.44	2.68967
19.45	2.70053
19.46	2.68967
19.47	2.67652
19.48	2.70218
19.49	2.71468
19.5	2.68704
19.51	2.70448
19.52	2.68737
19.53	2.69033
19.54	2.68178
19.55	2.67915
19.56	2.69033
19.57	2.67981
19.58	2.72389
19.59	2.69691
19.6	2.715
19.61	2.66763
19.62	2.69921
19.63	2.67619
19.64	2.67948
19.65	2.70086
19.66	2.67981
19.67	2.68277
19.68	2.69527
19.69	2.69461
19.7	2.70777
19.71	2.7206
19.72	2.65481
19.73	2.67454
19.74	2.70448
19.75	2.71237
19.76	2.69264
19.77	2.67915
19.78	2.70546
19.79	2.72553
19.8	2.6854
19.81	2.70514
19.82	2.69658
19.83	2.68803
19.84	2.66171
19.85	2.68803
19.86	2.69231
19.87	2.69165
19.88	2.68606
19.89	2.69889
19.9	2.7229
19.91	2.66698
19.92	2.68935
19.93	2.70185
19.94	2.68211
19.95	2.69296
19.96	2.7127
19.97	2.72356
19.98	2.73014
19.99	2.69856
20	2.68704
20.01	2.69362
20.02	2.69527
20.03	2.73014
20.04	2.69329
20.05	2.66961
20.06	2.67816
20.07	2.68079
20.08	2.7002
20.09	2.68935
20.1	2.67586
20.11	2.65119
20.12	2.68474
20.13	2.69987
20.14	2.71797
20.15	2.71862
20.16	2.65053
20.17	2.65086
20.18	2.68112
20.19	2.67027
20.2	2.68145
20.21	2.70349
20.22	2.68112
20.23	2.69
20.24	2.68178
20.25	2.67323
20.26	2.69198
20.27	2.68244
20.28	2.67388
20.29	2.68342
20.3	2.67816
20.31	2.70415
20.32	2.71237
20.33	2.66698
20.34	2.7025
20.35	2.6956
20.36	2.7104
20.37	2.70119
20.38	2.68408
20.39	2.66171
20.4	2.70382
20.41	2.69132
20.42	2.69757
20.43	2.70843
20.44	2.66961
20.45	2.66171
20.46	2.67915
20.47	2.68277
20.48	2.71928
20.49	2.70119
20.5	2.70185
20.51	2.70678
20.52	2.69527
20.53	2.68046
20.54	2.70185
20.55	2.71468
20.56	2.67619
20.57	2.6775
20.58	2.66566
20.59	2.67356
20.6	2.70218
20.61	2.69658
20.62	2.68869
20.63	2.69987
20.64	2.69757
20.65	2.71829
20.66	2.67652
20.67	2.6956
20.68	2.69329
20.69	2.68573
20.7	2.7002
20.71	2.67619
20.72	2.65678
20.73	2.67849
20.74	2.69856
20.75	2.69658
20.76	2.70152
20.77	2.69165
20.78	2.71468
20.79	2.69856
20.8	2.715
20.81	2.715
20.82	2.72125
20.83	2.70744
20.84	2.70053
20.85	2.69395
20.86	2.68507
20.87	2.64165
20.88	2.68967
20.89	2.69527
20.9	2.70875
20.91	2.68375
20.92	2.68277
20.93	2.65645
20.94	2.67783
20.95	2.68375
20.96	2.70974
20.97	2.70316
20.98	2.69889
20.99	2.70678
21	2.68803
21.01	2.70777
21.02	2.68836
21.03	2.68375
21.04	2.69527
21.05	2.71566
21.06	2.66007
21.07	2.70053
21.08	2.68474
21.09	2.67915
21.1	2.71994
21.11	2.69658
21.12	2.67586
21.13	2.68902
21.14	2.65744
21.15	2.69527
21.16	2.68211
21.17	2.68704
21.18	2.68046
21.19	2.69856
21.2	2.6854
21.21	2.68967
21.22	2.67027
21.23	2.69
21.24	2.65974
21.25	2.66007
21.26	2.6729
21.27	2.67257
21.28	2.70481
21.29	2.70448
21.3	2.69
21.31	2.6831
21.32	2.68507
21.33	2.70086
21.34	2.70086
21.35	2.69231
21.36	2.67388
21.37	2.67619
21.38	2.68046
21.39	2.70974
21.4	2.69954
21.41	2.68573
21.42	2.68178
21.43	2.68441
21.44	2.68869
21.45	2.70185
21.46	2.72487
21.47	2.66599
21.48	2.70053
21.49	2.67948
21.5	2.67816
21.51	2.69033
21.52	2.70777
21.53	2.71237
21.54	2.71402
21.55	2.67388
21.56	2.6956
21.57	2.69066
21.58	2.69329
21.59	2.67981
21.6	2.70349
21.61	2.70086
21.62	2.69921
21.63	2.69757
21.64	2.68342
21.65	2.67125
21.66	2.67882
21.67	2.68573
21.68	2.71862
21.69	2.69
21.7	2.70514
21.71	2.69527
21.72	2.66862
21.73	2.67553
21.74	2.67685
21.75	2.70316
21.76	2.67619
21.77	2.64724
21.78	2.66665
21.79	2.68375
21.8	2.6877
21.81	2.70349
21.82	2.71106
21.83	2.68507
21.84	2.68013
21.85	2.72849
21.86	2.65908
21.87	2.69
21.88	2.69395
21.89	2.6775
21.9	2.67388
21.91	2.72553
21.92	2.66796
21.93	2.68639
21.94	2.68013
21.95	2.68803
21.96	2.69
21.97	2.69
21.98	2.68639
21.99	2.71204
22	2.69395
22.01	2.71599
22.02	2.68671
22.03	2.69823
22.04	2.70316
22.05	2.69066
22.06	2.69921
22.07	2.68211
22.08	2.69066
22.09	2.70086
22.1	2.70579
22.11	2.69461
22.12	2.72191
22.13	2.69954
22.14	2.69428
22.15	2.69856
22.16	2.69428
22.17	2.70875
22.18	2.71468
22.19	2.70843
22.2	2.68606
22.21	2.68408
22.22	2.67948
22.23	2.66138
22.24	2.70185
22.25	2.6956
22.26	2.66862
22.27	2.71698
22.28	2.71073
22.29	2.72948
22.3	2.7025
22.31	2.67421
22.32	2.70415
22.33	2.69691
22.34	2.67158
22.35	2.65711
22.36	2.66895
22.37	2.67685
22.38	2.66632
22.39	2.67685
22.4	2.68375
22.41	2.67619
22.42	2.67915
22.43	2.69527
22.44	2.67717
22.45	2.69428
22.46	2.66796
22.47	2.66369
22.48	2.68211
22.49	2.68178
22.5	2.66171
22.51	2.68803
22.52	2.68277
22.53	2.66632
22.54	2.64724
22.55	2.68013
22.56	2.68507
22.57	2.70086
22.58	2.68408
22.59	2.68277
22.6	2.69428
22.61	2.64888
22.62	2.68507
22.63	2.66961
22.64	2.68244
22.65	2.70218
22.66	2.6854
22.67	2.64987
22.68	2.68342
22.69	2.6877
22.7	2.68277
22.71	2.71073
22.72	2.65842
22.73	2.70415
22.74	2.67915
22.75	2.67685
22.76	2.67948
22.77	2.66171
22.78	2.68211
22.79	2.68671
22.8	2.68277
22.81	2.65053
22.82	2.66533
22.83	2.68211
22.84	2.71435
22.85	2.71435
22.86	2.71928
22.87	2.69889
22.88	2.68342
22.89	2.68935
22.9	2.67816
22.91	2.70218
22.92	2.70514
22.93	2.70415
22.94	2.65053
22.95	2.69428
22.96	2.69921
22.97	2.69395
22.98	2.66138
22.99	2.69494
23	2.68869
23.01	2.69494
23.02	2.69362
23.03	2.67816
23.04	2.67685
23.05	2.68704
23.06	2.70086
23.07	2.66303
23.08	2.68869
23.09	2.67948
23.1	2.70283
23.11	2.68967
23.12	2.66369
23.13	2.66698
23.14	2.66402
23.15	2.68704
23.16	2.70481
23.17	2.7206
23.18	2.70185
23.19	2.68902
23.2	2.68441
23.21	2.67619
23.22	2.70448
23.23	2.68145
23.24	2.68013
23.25	2.68704
23.26	2.70283
23.27	2.67487
23.28	2.70843
23.29	2.67652
23.3	2.67717
23.31	2.70974
23.32	2.7002
23.33	2.70711
23.34	2.72553
23.35	2.68737
23.36	2.69921
23.37	2.68408
23.38	2.70744
23.39	2.70283
23.4	2.69724
23.41	2.70908
23.42	2.68737
23.43	2.66994
23.44	2.66007
23.45	2.69954
23.46	2.69691
23.47	2.69757
23.48	2.68277
23.49	2.6831
23.5	2.70152
23.51	2.73047
23.52	2.68967
23.53	2.67849
23.54	2.68606
23.55	2.68606
23.56	2.6479
23.57	2.66073
23.58	2.66303
23.59	2.69231
23.6	2.68639
23.61	2.67783
23.62	2.71369
23.63	2.66731
23.64	2.67553
23.65	2.6604
23.66	2.71665
23.67	2.70514
23.68	2.67388
23.69	2.70843
23.7	2.68573
23.71	2.6706
23.72	2.67553
23.73	2.70415
23.74	2.68013
23.75	2.68079
23.76	2.6775
23.77	2.70843
23.78	2.6752
23.79	2.68902
23.8	2.68112
23.81	2.70349
23.82	2.69198
23.83	2.66204
23.84	2.67323
23.85	2.65809
23.86	2.71402
23.87	2.71533
23.88	2.67125
23.89	2.68507
23.9	2.71171
23.91	2.68671
23.92	2.68507
23.93	2.69099
23.94	2.70119
23.95	2.69264
23.96	2.70777
23.97	2.70777
23.98	2.70316
23.99	2.70152
24	2.6956
24.01	2.70185
24.02	2.715
24.03	2.69527
24.04	2.68211
24.05	2.70086
24.06	2.65941
24.07	2.67586
24.08	2.69362
24.09	2.6979
24.1	2.70645
24.11	2.71303
24.12	2.6775
24.13	2.69395
24.14	2.6775
24.15	2.70086
24.16	2.69264
24.17	2.66961
24.18	2.69757
24.19	2.68639
24.2	2.69921
24.21	2.68507
24.22	2.64263
24.23	2.68639
24.24	2.68803
24.25	2.68737
24.26	2.68178
24.27	2.67125
24.28	2.71468
24.29	2.68967
24.3	2.66763
24.31	2.68671
24.32	2.67191
24.33	2.66073
24.34	2.68046
24.35	2.68639
24.36	2.69165
24.37	2.65283
24.38	2.66763
24.39	2.70448
24.4	2.71994
24.41	2.69
24.42	2.70908
24.43	2.68112
24.44	2.65349
24.45	2.69527
24.46	2.68639
24.47	2.68211
24.48	2.68606
24.49	2.67257
24.5	2.6979
24.51	2.70185
24.52	2.67652
24.53	2.66566
24.54	2.65974
24.55	2.6729
24.56	2.67454
24.57	2.67454
24.58	2.69592
24.59	2.70579
24.6	2.6956
24.61	2.69033
24.62	2.71336
24.63	2.74297
24.64	2.69461
24.65	2.69231
24.66	2.65546
24.67	2.65152
24.68	2.64691
24.69	2.67454
24.7	2.7002
24.71	2.71303
24.72	2.68046
24.73	2.68671
24.74	2.70711
24.75	2.66961
24.76	2.69
24.77	2.67191
24.78	2.67783
24.79	2.64592
24.8	2.66204
24.81	2.67685
24.82	2.66698
24.83	2.69527
24.84	2.69033
24.85	2.68277
24.86	2.69856
24.87	2.67619
24.88	2.67356
24.89	2.68277
24.9	2.66829
24.91	2.67849
24.92	2.69823
24.93	2.69658
24.94	2.6752
24.95	2.66862
24.96	2.68244
24.97	2.68704
24.98	2.66566
24.99	2.68507
25	2.69395
25.01	2.66533
25.02	2.64132
25.03	2.67948
25.04	2.67816
25.05	2.70678
25.06	2.70349
25.07	2.69527
25.08	2.71566
25.09	2.66566
25.1	2.65382
25.11	2.69954
25.12	2.67586
25.13	2.66763
25.14	2.70053
25.15	2.69658
25.16	2.70185
25.17	2.67981
25.18	2.68211
25.19	2.6831
25.2	2.71303
25.21	2.72389
25.22	2.69527
25.23	2.66237
25.24	2.67454
25.25	2.68869
25.26	2.68013
25.27	2.70086
25.28	2.66961
25.29	2.64198
25.3	2.67092
25.31	2.69329
25.32	2.68803
25.33	2.6752
25.34	2.67125
25.35	2.68803
25.36	2.69165
25.37	2.70678
25.38	2.68671
25.39	2.71303
25.4	2.67915
25.41	2.71303
25.42	2.69231
25.43	2.68935
25.44	2.67586
25.45	2.69198
25.46	2.70086
25.47	2.69658
25.48	2.6729
25.49	2.65875
25.5	2.70875
25.51	2.69
25.52	2.66961
25.53	2.6956
25.54	2.69889
25.55	2.68408
25.56	2.69329
25.57	2.67388
25.58	2.66073
25.59	2.68408
25.6	2.69362
25.61	2.70481
25.62	2.68737
25.63	2.67586
25.64	2.68573
25.65	2.69954
25.66	2.69527
25.67	2.68145
25.68	2.68606
25.69	2.66665
25.7	2.67849
25.71	2.7081
25.72	2.69329
25.73	2.69362
25.74	2.6979
25.75	2.6775
25.76	2.67421
25.77	2.70218
25.78	2.70185
25.79	2.65908
25.8	2.68967
25.81	2.69921
25.82	2.66303
25.83	2.69889
25.84	2.69033
25.85	2.67685
25.86	2.67948
25.87	2.67685
25.88	2.71961
25.89	2.69921
25.9	2.68244
25.91	2.68079
25.92	2.69987
25.93	2.70744
25.94	2.70645
25.95	2.69132
25.96	2.68046
25.97	2.65086
25.98	2.67454
25.99	2.71468
26	2.70152
26.01	2.69362
26.02	2.70678
26.03	2.69033
26.04	2.67125
26.05	2.69
26.06	2.70481
26.07	2.69921
26.08	2.70316
26.09	2.6502
26.1	2.65152
26.11	2.68441
26.12	2.67454
26.13	2.6502
26.14	2.68375
26.15	2.68902
26.16	2.70744
26.17	2.68935
26.18	2.66599
26.19	2.7025
26.2	2.69592
26.21	2.6831
26.22	2.68573
26.23	2.66171
26.24	2.66928
26.25	2.65382
26.26	2.68013
26.27	2.71303
26.28	2.70481
26.29	2.70086
26.3	2.70283
26.31	2.68606
26.32	2.66829
26.33	2.69395
26.34	2.70316
26.35	2.70316
26.36	2.70086
26.37	2.68342
26.38	2.66336
26.39	2.68013
26.4	2.66402
26.41	2.665
26.42	2.70053
26.43	2.70546
26.44	2.68211
26.45	2.66204
26.46	2.69625
26.47	2.68507
26.48	2.68704
26.49	2.70645
26.5	2.63638
26.51	2.65579
26.52	2.66665
26.53	2.68408
26.54	2.67882
26.55	2.6854
26.56	2.69395
26.57	2.68803
26.58	2.69461
26.59	2.70053
26.6	2.74198
26.61	2.70283
26.62	2.67323
26.63	2.65612
26.64	2.68902
26.65	2.71369
26.66	2.69165
26.67	2.7002
26.68	2.71829
26.69	2.69099
26.7	2.68408
26.71	2.72224
26.72	2.66928
26.73	2.65349
26.74	2.6854
26.75	2.70843
26.76	2.6831
26.77	2.68639
26.78	2.70579
26.79	2.66961
26.8	2.69527
26.81	2.70086
26.82	2.67027
26.83	2.69494
26.84	2.70711
26.85	2.6775
26.86	2.68211
26.87	2.71928
26.88	2.69198
26.89	2.65349
26.9	2.70218
26.91	2.67882
26.92	2.68441
26.93	2.69165
26.94	2.70645
26.95	2.69625
26.96	2.69198
26.97	2.66731
26.98	2.64395
26.99	2.6775
27	2.69231
27.01	2.69658
27.02	2.70744
27.03	2.72125
27.04	2.69856
27.05	2.70152
27.06	2.69954
27.07	2.70612
27.08	2.66336
27.09	2.67915
27.1	2.6706
27.11	2.68408
27.12	2.69362
27.13	2.66731
27.14	2.64987
27.15	2.67356
27.16	2.67388
27.17	2.67816
27.18	2.68408
27.19	2.69494
27.2	2.68704
27.21	2.70316
27.22	2.70645
27.23	2.67849
27.24	2.71533
27.25	2.70349
27.26	2.7002
27.27	2.68375
27.28	2.69461
27.29	2.66928
27.3	2.68474
27.31	2.67981
27.32	2.70481
27.33	2.68342
27.34	2.6877
27.35	2.67915
27.36	2.67652
27.37	2.69198
27.38	2.66303
27.39	2.67948
27.4	2.72356
27.41	2.69033
27.42	2.68112
27.43	2.66862
27.44	2.6877
27.45	2.72323
27.46	2.6877
27.47	2.69329
27.48	2.67717
27.49	2.69954
27.5	2.68606
27.51	2.70119
27.52	2.69954
27.53	2.66303
27.54	2.66698
27.55	2.69494
27.56	2.64461
27.57	2.67619
27.58	2.71336
27.59	2.69527
27.6	2.67487
27.61	2.67849
27.62	2.66862
27.63	2.68507
27.64	2.64823
27.65	2.68342
27.66	2.68046
27.67	2.67027
27.68	2.70448
27.69	2.68803
27.7	2.6706
27.71	2.70514
27.72	2.69428
27.73	2.6752
27.74	2.6752
27.75	2.67652
27.76	2.66369
27.77	2.66895
27.78	2.68277
27.79	2.70546
27.8	2.68178
27.81	2.6854
27.82	2.67487
27.83	2.65678
27.84	2.66073
27.85	2.69
27.86	2.67027
27.87	2.69428
27.88	2.70283
27.89	2.67586
27.9	2.6729
27.91	2.72849
27.92	2.68935
27.93	2.68671
27.94	2.6831
27.95	2.68178
27.96	2.68606
27.97	2.68046
27.98	2.68507
27.99	2.66928
28	2.66829
28.01	2.665
28.02	2.68342
28.03	2.66895
28.04	2.69428
28.05	2.68671
28.06	2.68573
28.07	2.69
28.08	2.69691
28.09	2.65152
28.1	2.69592
28.11	2.68507
28.12	2.68441
28.13	2.70185
28.14	2.70119
28.15	2.66533
28.16	2.66402
28.17	2.66763
28.18	2.6525
28.19	2.64559
28.2	2.66994
28.21	2.71007
28.22	2.71204
28.23	2.67882
28.24	2.68671
28.25	2.69033
28.26	2.68639
28.27	2.67224
28.28	2.66829
28.29	2.67421
28.3	2.67652
28.31	2.71336
28.32	2.7002
28.33	2.68869
28.34	2.68013
28.35	2.69527
28.36	2.69625
28.37	2.70283
28.38	2.68013
28.39	2.69198
28.4	2.67586
28.41	2.67454
28.42	2.67224
28.43	2.67948
28.44	2.70579
28.45	2.67915
28.46	2.69362
28.47	2.70086
28.48	2.71797
28.49	2.6831
28.5	2.69625
28.51	2.71862
28.52	2.68737
28.53	2.66402
28.54	2.67553
28.55	2.64329
28.56	2.67586
28.57	2.69987
28.58	2.66566
28.59	2.68244
28.6	2.7081
28.61	2.69856
28.62	2.69889
28.63	2.69592
28.64	2.70843
28.65	2.6775
28.66	2.66138
28.67	2.65875
28.68	2.70185
28.69	2.68112
28.7	2.67717
28.71	2.6752
28.72	2.66434
28.73	2.67717
28.74	2.66862
28.75	2.69921
28.76	2.67125
28.77	2.69165
28.78	2.6831
28.79	2.65217
28.8	2.63934
28.81	2.67717
28.82	2.68474
28.83	2.69296
28.84	2.67586
28.85	2.66467
28.86	2.6775
28.87	2.66566
28.88	2.66237
28.89	2.6775
28.9	2.69099
28.91	2.68112
28.92	2.70514
28.93	2.70974
28.94	2.7002
28.95	2.71928
28.96	2.69099
28.97	2.66895
28.98	2.67553
28.99	2.68046
29	2.68013
29.01	2.68441
29.02	2.68013
29.03	2.68474
29.04	2.66204
29.05	2.67125
29.06	2.65974
29.07	2.64362
29.08	2.64592
29.09	2.67388
29.1	2.72125
29.11	2.67882
29.12	2.65053
29.13	2.66106
29.14	2.67652
29.15	2.65448
29.16	2.68178
29.17	2.68639
29.18	2.68244
29.19	2.68441
29.2	2.68507
29.21	2.68902
29.22	2.66467
29.23	2.66533
29.24	2.65974
29.25	2.66599
29.26	2.70218
29.27	2.69428
29.28	2.64921
29.29	2.65086
29.3	2.6604
29.31	2.68112
29.32	2.69691
29.33	2.69198
29.34	2.6979
29.35	2.70481
29.36	2.72323
29.37	2.68902
29.38	2.6604
29.39	2.66599
29.4	2.64888
29.41	2.65579
29.42	2.68803
29.43	2.65809
29.44	2.65777
29.45	2.63605
29.46	2.70908
29.47	2.70744
29.48	2.65974
29.49	2.65053
29.5	2.67027
29.51	2.68671
29.52	2.6956
29.53	2.66434
29.54	2.6729
29.55	2.68079
29.56	2.65809
29.57	2.6706
29.58	2.6729
29.59	2.67652
29.6	2.66796
29.61	2.65283
29.62	2.70152
29.63	2.67191
29.64	2.67882
29.65	2.7002
29.66	2.70875
29.67	2.70448
29.68	2.67948
29.69	2.67882
29.7	2.68803
29.71	2.69099
29.72	2.64527
29.73	2.66566
29.74	2.66467
29.75	2.68342
29.76	2.68408
29.77	2.67257
29.78	2.7025
29.79	2.68606
29.8	2.69099
29.81	2.68869
29.82	2.69231
29.83	2.66566
29.84	2.70119
29.85	2.66731
29.86	2.67882
29.87	2.67948
29.88	2.6956
29.89	2.67388
29.9	2.66467
29.91	2.67323
29.92	2.69264
29.93	2.70481
29.94	2.68507
29.95	2.6729
29.96	2.68408
29.97	2.6706
29.98	2.64527
29.99	2.67685
30	2.68967
