"BIO-KINE ASCII FILE"
"_COMMENT"	"MOS-500 Spectrometer"
"_COMMENT"	"Kinetics measurement"
"_COMMENT"	"Y Unit : Volt,  X Unit : s"
"_COMMENT"	"Excitation wavelength : 380 nm"
"_COMMENT"	"Fentes bandwidth =  1 nm"
"_COMMENT"	"HV= 1000V"
"_COMMENT"	"Timebase  1 =  .01 s   5001 pts"
"_SFM"	"SFM-400 /S  Advanced mode"
"_SFM"	"Ratio : S1: 2.5, S2: 0, S3: 0, S4: 1"
"_SFM"	"Content : S1: , S2: , S3: , S4:"
"_SFM"	"Concentration : S1: , S2: , S3: , S4:"
"_SFM"	"Total volume : 209 µl  Flow : 3.5 mL/s"
"_SFM"	"Acquisition start :  10 ms before stop"
"_SFM"	"cuve=FC-15, s1=10 ml , s2=10 ml , s3=10 ml , s4=1.9 ml"
"_UNITX"	"s"
"_UNITY"	"Volt"
"_DELTAX"	0
"_DATA"
1e-300	2.29131
0.01	2.50644
0.02	2.80481
0.03	2.891
0.04	2.89264
0.05	2.95613
0.06	2.97258
0.07	2.94659
0.08	2.97093
0.09	3.00449
0.1	3.00317
0.11	2.99955
0.12	3.02126
0.13	3.01962
0.14	3.02686
0.15	3.04034
0.16	3.03311
0.17	3.0433
0.18	3.02488
0.19	3.0285
0.2	3.0489
0.21	3.0364
0.22	3.05416
0.23	3.02784
0.24	3.05021
0.25	3.03344
0.26	3.07028
0.27	3.04265
0.28	3.05646
0.29	3.05679
0.3	3.06567
0.31	3.05416
0.32	3.01666
0.33	3.0239
0.34	3.02784
0.35	3.0637
0.36	3.07817
0.37	3.05613
0.38	3.05909
0.39	3.03146
0.4	3.04955
0.41	3.05548
0.42	3.05581
0.43	3.02686
0.44	3.07028
0.45	3.0739
0.46	3.05778
0.47	3.08508
0.48	3.06831
0.49	3.05909
0.5	3.06008
0.51	3.07883
0.52	3.04923
0.53	3.06732
0.54	3.07916
0.55	3.03212
0.56	3.06567
0.57	3.066
0.58	3.03837
0.59	3.04067
0.6	3.08574
0.61	3.05548
0.62	3.05712
0.63	3.04955
0.64	3.02028
0.65	3.02916
0.66	3.07028
0.67	3.06206
0.68	3.04659
0.69	3.06271
0.7	3.07028
0.71	3.06403
0.72	3.06962
0.73	3.05252
0.74	3.08739
0.75	3.07949
0.76	3.05581
0.77	3.02192
0.78	3.05515
0.79	3.02751
0.8	3.01699
0.81	3.04429
0.82	3.06271
0.83	3.04429
0.84	3.04988
0.85	3.05317
0.86	3.02883
0.87	3.01633
0.88	3.06337
0.89	3.03804
0.9	3.02587
0.91	3.02061
0.92	3.02949
0.93	3.03837
0.94	3.02784
0.95	3.00811
0.96	3.03409
0.97	3.02587
0.98	3.04988
0.99	3.03442
1	3.05844
1.01	3.05613
1.02	3.03607
1.03	3.04067
1.04	3.00284
1.05	3.04955
1.06	3.05054
1.07	3.05778
1.08	3.03673
1.09	3.01205
1.1	3.05219
1.11	3.01732
1.12	3.03903
1.13	3.04462
1.14	3.06238
1.15	3.01205
1.16	3.02751
1.17	3.02719
1.18	3.016
1.19	3.01896
1.2	3.04758
1.21	3.06534
1.22	3.03969
1.23	3.00909
1.24	3.03048
1.25	3.0637
1.26	3.02028
1.27	3.02258
1.28	3.03705
1.29	3.04923
1.3	3.03212
1.31	3.01765
1.32	3.02291
1.33	3.03212
1.34	3.041
1.35	3.04429
1.36	3.03376
1.37	2.98442
1.38	3.00942
1.39	3.02982
1.4	3.01666
1.41	3.02094
1.42	3.0308
1.43	3.00284
1.44	2.99824
1.45	3.01436
1.46	3.02094
1.47	3.00613
1.48	2.99166
1.49	3.00646
1.5	3.03541
1.51	3.03508
1.52	3.0614
1.53	3.01896
1.54	3.01041
1.55	3.01238
1.56	3.04791
1.57	3.01238
1.58	2.99955
1.59	3.02061
1.6	3.03146
1.61	3.02291
1.62	3.06074
1.63	3.05449
1.64	3.00745
1.65	3.016
1.66	3.01896
1.67	3.02258
1.68	2.98771
1.69	3.01271
1.7	2.9864
1.71	2.99692
1.72	3.02061
1.73	3.00547
1.74	3.00482
1.75	2.97028
1.76	2.99363
1.77	2.99561
1.78	3.01403
1.79	3.00383
1.8	3.02751
1.81	3.02159
1.82	3.03311
1.83	3.00844
1.84	3.03311
1.85	3.04199
1.86	3.02192
1.87	3.02159
1.88	2.98903
1.89	3.02225
1.9	3.03113
1.91	2.98804
1.92	2.96962
1.93	3.02455
1.94	3.02028
1.95	3.04462
1.96	3.06271
1.97	3.05877
1.98	3.04034
1.99	2.98607
2	3.01567
2.01	3.04495
2.02	3.02521
2.03	3.03771
2.04	3.0387
2.05	3.04067
2.06	2.99758
2.07	3.02028
2.08	3.00975
2.09	2.99034
2.1	2.98804
2.11	3.016
2.12	3.01238
2.13	2.99429
2.14	3.01567
2.15	3.01172
2.16	3.01238
2.17	3.00054
2.18	3.01666
2.19	3.02521
2.2	2.99429
2.21	2.99001
2.22	2.99034
2.23	2.97258
2.24	2.9933
2.25	3.00646
2.26	3.01633
2.27	3.00186
2.28	2.99462
2.29	2.99528
2.3	3.03245
2.31	2.99955
2.32	2.99593
2.33	2.98113
2.34	3.0058
2.35	3.01041
2.36	2.98936
2.37	3.0387
2.38	2.98311
2.39	2.98541
2.4	2.98475
2.41	3.016
2.42	2.97587
2.43	2.9785
2.44	2.9637
2.45	3.00646
2.46	2.9989
2.47	3.02225
2.48	2.99396
2.49	2.97686
2.5	3.01403
2.51	3.016
2.52	2.99561
2.53	2.96271
2.54	3.00153
2.55	3.00712
2.56	3.01337
2.57	3.00449
2.58	3.02291
2.59	2.99495
2.6	2.99067
2.61	3.00778
2.62	2.991
2.63	3.02061
2.64	3.00153
2.65	3.0058
2.66	2.98179
2.67	2.99462
2.68	3.01008
2.69	3.00811
2.7	3.02719
2.71	2.99626
2.72	3.01074
2.73	3.07357
2.74	3.00876
2.75	3.03508
2.76	3.00186
2.77	2.97389
2.78	2.98212
2.79	2.97061
2.8	2.99955
2.81	2.9808
2.82	2.98837
2.83	3.00811
2.84	2.99659
2.85	3.00778
2.86	3.02291
2.87	3.01008
2.88	2.99824
2.89	2.97061
2.9	3.00811
2.91	3.04495
2.92	2.99199
2.93	2.98541
2.94	3.00087
2.95	2.98113
2.96	3.00284
2.97	2.9762
2.98	2.99528
2.99	2.99034
3	3.0035
3.01	3.00087
3.02	2.99297
3.03	2.96041
3.04	2.99922
3.05	2.98475
3.06	2.98409
3.07	2.99166
3.08	3.0114
3.09	2.96962
3.1	2.96929
3.11	3.00942
3.12	2.99857
3.13	3.02357
3.14	2.9637
3.15	2.98804
3.16	3.00482
3.17	2.98146
3.18	2.99067
3.19	3.00975
3.2	2.98343
3.21	2.98311
3.22	2.9808
3.23	2.98541
3.24	2.9989
3.25	2.94034
3.26	2.98475
3.27	2.98442
3.28	2.99495
3.29	3.00383
3.3	3.02916
3.31	3.03015
3.32	3.01337
3.33	2.99758
3.34	2.97159
3.35	2.99659
3.36	3.00975
3.37	2.98278
3.38	2.99922
3.39	3.0489
3.4	3.0262
3.41	2.97521
3.42	2.96107
3.43	2.98179
3.44	2.99593
3.45	3.00844
3.46	2.97784
3.47	2.99561
3.48	2.96567
3.49	2.93771
3.5	2.97258
3.51	2.99561
3.52	2.99922
3.53	2.97389
3.54	2.98278
3.55	2.97324
3.56	2.97357
3.57	2.97061
3.58	3.00547
3.59	2.99692
3.6	3.00021
3.61	2.98343
3.62	2.97192
3.63	2.96797
3.64	3.00778
3.65	2.99725
3.66	3.00219
3.67	2.98475
3.68	2.96633
3.69	2.98475
3.7	2.97916
3.71	2.98771
3.72	2.94626
3.73	2.9331
3.74	2.99824
3.75	2.94034
3.76	2.95087
3.77	2.94199
3.78	2.97488
3.79	2.97357
3.8	2.99067
3.81	2.99363
3.82	2.97883
3.83	2.9887
3.84	3.00909
3.85	2.99199
3.86	2.97357
3.87	2.9387
3.88	3.00186
3.89	2.95547
3.9	2.98903
3.91	2.99626
3.92	3.00317
3.93	2.99133
3.94	2.98409
3.95	2.96403
3.96	2.97291
3.97	2.96567
3.98	2.96995
3.99	2.97949
4	2.97225
4.01	2.97357
4.02	2.97883
4.03	2.95449
4.04	2.98475
4.05	2.99297
4.06	3.00087
4.07	2.95383
4.08	2.95876
4.09	2.96929
4.1	2.96337
4.11	2.96172
4.12	2.96962
4.13	2.97291
4.14	2.96962
4.15	2.93409
4.16	2.97192
4.17	2.97817
4.18	2.9637
4.19	2.95383
4.2	2.98146
4.21	2.94988
4.22	2.93935
4.23	2.93672
4.24	2.95284
4.25	2.941
4.26	2.96962
4.27	2.95449
4.28	2.98343
4.29	2.9581
4.3	2.98146
4.31	2.99593
4.32	2.97784
4.33	2.94462
4.34	2.95087
4.35	2.93705
4.36	2.94166
4.37	2.94988
4.38	2.91962
4.39	2.94626
4.4	2.95087
4.41	2.96041
4.42	2.93409
4.43	2.93738
4.44	2.93343
4.45	2.97554
4.46	2.97422
4.47	2.94067
4.48	2.92949
4.49	2.9456
4.5	2.94824
4.51	2.94955
4.52	2.92455
4.53	2.91929
4.54	2.9762
4.55	2.98212
4.56	2.99626
4.57	2.95942
4.58	2.96896
4.59	2.95679
4.6	2.95613
4.61	2.9762
4.62	2.93804
4.63	2.93639
4.64	2.93475
4.65	2.93738
4.66	2.94363
4.67	2.96633
4.68	2.96863
4.69	2.94659
4.7	2.95317
4.71	2.92225
4.72	2.97455
4.73	2.95185
4.74	2.94429
4.75	2.96929
4.76	2.9808
4.77	2.98837
4.78	2.99034
4.79	2.95745
4.8	2.93968
4.81	2.95317
4.82	2.97093
4.83	2.99133
4.84	2.97949
4.85	2.94034
4.86	2.95712
4.87	2.95778
4.88	2.95185
4.89	2.94692
4.9	2.95712
4.91	2.95778
4.92	2.94231
4.93	2.93179
4.94	2.94067
4.95	2.97916
4.96	2.96403
4.97	2.9558
4.98	2.95449
4.99	2.95054
5	2.98837
5.01	3.00482
5.02	2.94231
5.03	2.96304
5.04	2.9512
5.05	2.94495
5.06	2.97455
5.07	2.96863
5.08	2.96863
5.09	2.98113
5.1	2.95449
5.11	2.96041
5.12	2.95778
5.13	2.95646
5.14	2.94988
5.15	2.95778
5.16	2.91172
5.17	2.9581
5.18	2.9433
5.19	2.95218
5.2	2.95416
5.21	2.9183
5.22	2.97389
5.23	2.97422
5.24	2.91666
5.25	2.94396
5.26	2.95153
5.27	2.92389
5.28	2.92587
5.29	2.93639
5.3	2.94199
5.31	2.95054
5.32	2.94528
5.33	2.93903
5.34	2.95054
5.35	2.94495
5.36	2.95185
5.37	2.96764
5.38	2.92291
5.39	2.95021
5.4	2.9262
5.41	2.92455
5.42	2.93606
5.43	2.9308
5.44	2.95153
5.45	2.94692
5.46	2.93475
5.47	2.92718
5.48	2.96107
5.49	2.98574
5.5	2.96304
5.51	2.97718
5.52	2.96534
5.53	2.96797
5.54	2.96699
5.55	2.93903
5.56	2.92916
5.57	2.92488
5.58	2.9433
5.59	2.96567
5.6	2.97949
5.61	2.94528
5.62	2.95514
5.63	2.9456
5.64	2.94166
5.65	2.94824
5.66	2.92356
5.67	2.94856
5.68	2.96205
5.69	2.92718
5.7	2.96633
5.71	2.94922
5.72	2.92751
5.73	2.90876
5.74	2.91962
5.75	2.91304
5.76	2.9262
5.77	2.93014
5.78	2.95646
5.79	2.9456
5.8	2.94824
5.81	2.93508
5.82	2.92685
5.83	2.93574
5.84	2.93837
5.85	2.9387
5.86	2.95514
5.87	2.97883
5.88	2.95218
5.89	2.93343
5.9	2.93574
5.91	2.93738
5.92	2.9206
5.93	2.92817
5.94	2.94396
5.95	2.96107
5.96	2.9512
5.97	2.93212
5.98	2.95449
5.99	2.90712
6	2.89363
6.01	2.91929
6.02	2.93804
6.03	2.93738
6.04	2.92784
6.05	2.94429
6.06	2.95251
6.07	2.91041
6.08	2.9581
6.09	2.93804
6.1	2.89001
6.11	2.9183
6.12	2.93113
6.13	2.94231
6.14	2.9433
6.15	2.95712
6.16	2.96107
6.17	2.95482
6.18	2.94166
6.19	2.9331
6.2	2.92422
6.21	2.94297
6.22	2.95317
6.23	2.94001
6.24	2.9285
6.25	2.94363
6.26	2.94824
6.27	2.92192
6.28	2.91468
6.29	2.93639
6.3	2.96107
6.31	2.92718
6.32	2.92521
6.33	2.94462
6.34	2.90481
6.35	2.90975
6.36	2.92949
6.37	2.9285
6.38	2.92554
6.39	2.93968
6.4	2.94199
6.41	2.93508
6.42	2.95975
6.43	2.93935
6.44	2.89626
6.45	2.89462
6.46	2.92225
6.47	2.95482
6.48	2.95021
6.49	2.94988
6.5	2.92751
6.51	2.93771
6.52	2.93903
6.53	2.93935
6.54	2.99034
6.55	2.93245
6.56	2.91863
6.57	2.90909
6.58	2.90876
6.59	2.93047
6.6	2.92784
6.61	2.92192
6.62	2.92817
6.63	2.92324
6.64	2.95185
6.65	2.966
6.66	2.91633
6.67	2.9683
6.68	2.92751
6.69	2.94791
6.7	2.94264
6.71	2.93771
6.72	2.91896
6.73	2.93442
6.74	2.9535
6.75	2.94429
6.76	2.94495
6.77	2.95218
6.78	2.93442
6.79	2.92685
6.8	2.92685
6.81	2.96139
6.82	2.916
6.83	2.9081
6.84	2.95482
6.85	2.93639
6.86	2.91501
6.87	2.93212
6.88	2.93376
6.89	2.89297
6.9	2.95679
6.91	2.916
6.92	2.91666
6.93	2.94133
6.94	2.941
6.95	2.9433
6.96	2.92258
6.97	2.94166
6.98	2.95975
6.99	2.90021
7	2.89001
7.01	2.94034
7.02	2.92488
7.03	2.91501
7.04	2.88869
7.05	2.90712
7.06	2.92981
7.07	2.93705
7.08	2.90942
7.09	2.93574
7.1	2.93837
7.11	2.92718
7.12	2.95054
7.13	2.91073
7.14	2.94363
7.15	2.91304
7.16	2.92455
7.17	2.93606
7.18	2.94495
7.19	2.91304
7.2	2.90317
7.21	2.9433
7.22	2.92093
7.23	2.90975
7.24	2.91073
7.25	2.90481
7.26	2.93968
7.27	2.91633
7.28	2.94429
7.29	2.92291
7.3	2.9512
7.31	2.93409
7.32	2.95021
7.33	2.92192
7.34	2.91271
7.35	2.91797
7.36	2.88212
7.37	2.90745
7.38	2.91962
7.39	2.89856
7.4	2.90876
7.41	2.916
7.42	2.90843
7.43	2.94264
7.44	2.93935
7.45	2.941
7.46	2.91534
7.47	2.91402
7.48	2.87817
7.49	2.90909
7.5	2.92291
7.51	2.90119
7.52	2.9285
7.53	2.91008
7.54	2.91238
7.55	2.90481
7.56	2.92916
7.57	2.93738
7.58	2.9081
7.59	2.92093
7.6	2.93146
7.61	2.94593
7.62	2.93837
7.63	2.88738
7.64	2.90777
7.65	2.89527
7.66	2.92949
7.67	2.94791
7.68	2.91008
7.69	2.90218
7.7	2.93606
7.71	2.93442
7.72	2.92422
7.73	2.94264
7.74	2.9081
7.75	2.89988
7.76	2.94363
7.77	2.93343
7.78	2.95054
7.79	2.91797
7.8	2.92916
7.81	2.93146
7.82	2.94034
7.83	2.92192
7.84	2.92521
7.85	2.90284
7.86	2.91172
7.87	2.86139
7.88	2.91337
7.89	2.92291
7.9	2.91435
7.91	2.90843
7.92	2.91666
7.93	2.92949
7.94	2.9206
7.95	2.95416
7.96	2.94001
7.97	2.90317
7.98	2.94034
7.99	2.916
8	2.8933
8.01	2.92652
8.02	2.8956
8.03	2.91633
8.04	2.93146
8.05	2.90646
8.06	2.92488
8.07	2.91534
8.08	2.9262
8.09	2.93442
8.1	2.91139
8.11	2.93113
8.12	2.96205
8.13	2.97061
8.14	2.91698
8.15	2.93935
8.16	2.90152
8.17	2.92488
8.18	2.94856
8.19	2.92718
8.2	2.89429
8.21	2.90284
8.22	2.9081
8.23	2.90777
8.24	2.93574
8.25	2.9581
8.26	2.8933
8.27	2.90514
8.28	2.91863
8.29	2.91172
8.3	2.93245
8.31	2.92652
8.32	2.93968
8.33	2.94659
8.34	2.94133
8.35	2.91501
8.36	2.91139
8.37	2.89034
8.38	2.89527
8.39	2.93343
8.4	2.92159
8.41	2.91337
8.42	2.9058
8.43	2.87225
8.44	2.92192
8.45	2.91337
8.46	2.93508
8.47	2.94462
8.48	2.91534
8.49	2.90777
8.5	2.88771
8.51	2.91534
8.52	2.916
8.53	2.91797
8.54	2.87883
8.55	2.91172
8.56	2.93903
8.57	2.91731
8.58	2.89856
8.59	2.90448
8.6	2.91468
8.61	2.91567
8.62	2.97061
8.63	2.94824
8.64	2.91468
8.65	2.91962
8.66	2.93146
8.67	2.90251
8.68	2.93771
8.69	2.90975
8.7	2.92159
8.71	2.91633
8.72	2.92916
8.73	2.91501
8.74	2.91172
8.75	2.93014
8.76	2.9535
8.77	2.92488
8.78	2.90942
8.79	2.91172
8.8	2.90054
8.81	2.94231
8.82	2.9512
8.83	2.90218
8.84	2.92521
8.85	2.92916
8.86	2.88869
8.87	2.91238
8.88	2.89001
8.89	2.90777
8.9	2.92027
8.91	2.89297
8.92	2.90021
8.93	2.89133
8.94	2.92324
8.95	2.91764
8.96	2.93376
8.97	2.93837
8.98	2.91041
8.99	2.91896
9	2.92422
9.01	2.91468
9.02	2.93672
9.03	2.93277
9.04	2.92949
9.05	2.92093
9.06	2.8956
9.07	2.89988
9.08	2.90646
9.09	2.92192
9.1	2.91633
9.11	2.93475
9.12	2.92949
9.13	2.92356
9.14	2.86764
9.15	2.91567
9.16	2.92817
9.17	2.8933
9.18	2.90021
9.19	2.92455
9.2	2.89955
9.21	2.87422
9.22	2.89034
9.23	2.91337
9.24	2.92225
9.25	2.89922
9.26	2.90218
9.27	2.89001
9.28	2.87323
9.29	2.89791
9.3	2.90448
9.31	2.91041
9.32	2.91501
9.33	2.91008
9.34	2.89856
9.35	2.90909
9.36	2.85218
9.37	2.90021
9.38	2.94692
9.39	2.93442
9.4	2.91435
9.41	2.90547
9.42	2.90021
9.43	2.88672
9.44	2.90251
9.45	2.91962
9.46	2.91567
9.47	2.91995
9.48	2.91468
9.49	2.91402
9.5	2.93837
9.51	2.91271
9.52	2.91041
9.53	2.90909
9.54	2.90383
9.55	2.89955
9.56	2.9081
9.57	2.87685
9.58	2.92126
9.59	2.93014
9.6	2.89429
9.61	2.8854
9.62	2.88639
9.63	2.90152
9.64	2.89725
9.65	2.89856
9.66	2.90843
9.67	2.91304
9.68	2.88935
9.69	2.90448
9.7	2.88376
9.71	2.8785
9.72	2.88804
9.73	2.89725
9.74	2.90975
9.75	2.90745
9.76	2.89198
9.77	2.89462
9.78	2.89955
9.79	2.89955
9.8	2.92291
9.81	2.87817
9.82	2.87093
9.83	2.90679
9.84	2.90843
9.85	2.91337
9.86	2.90054
9.87	2.89363
9.88	2.8831
9.89	2.91929
9.9	2.92685
9.91	2.93705
9.92	2.93442
9.93	2.93475
9.94	2.90284
9.95	2.9183
9.96	2.88804
9.97	2.89133
9.98	2.9081
9.99	2.90185
10	2.90054
10.01	2.88738
10.02	2.87587
10.03	2.90218
10.04	2.88968
10.05	2.92159
10.06	2.89593
10.07	2.88113
10.08	2.8831
10.09	2.91567
10.1	2.90646
10.11	2.90909
10.12	2.8729
10.13	2.91205
10.14	2.92488
10.15	2.90876
10.16	2.891
10.17	2.89527
10.18	2.87915
10.19	2.90481
10.2	2.89758
10.21	2.8558
10.22	2.87488
10.23	2.92455
10.24	2.93672
10.25	2.93245
10.26	2.86961
10.27	2.88573
10.28	2.91797
10.29	2.89922
10.3	2.91139
10.31	2.87883
10.32	2.90547
10.33	2.92389
10.34	2.88869
10.35	2.8535
10.36	2.86336
10.37	2.88573
10.38	2.85679
10.39	2.88804
10.4	2.91896
10.41	2.90152
10.42	2.89527
10.43	2.87027
10.44	2.90185
10.45	2.89198
10.46	2.90712
10.47	2.91008
10.48	2.90185
10.49	2.91139
10.5	2.90942
10.51	2.89166
10.52	2.8956
10.53	2.88738
10.54	2.8729
10.55	2.85942
10.56	2.88244
10.57	2.8808
10.58	2.91172
10.59	2.90383
10.6	2.89725
10.61	2.86665
10.62	2.8831
10.63	2.88672
10.64	2.84363
10.65	2.88606
10.66	2.89823
10.67	2.89494
10.68	2.89593
10.69	2.88146
10.7	2.88475
10.71	2.8729
10.72	2.87948
10.73	2.88902
10.74	2.91139
10.75	2.8808
10.76	2.88014
10.77	2.89133
10.78	2.88804
10.79	2.91337
10.8	2.866
10.81	2.86468
10.82	2.87258
10.83	2.90218
10.84	2.89001
10.85	2.89988
10.86	2.89692
10.87	2.91698
10.88	2.90613
10.89	2.89396
10.9	2.88409
10.91	2.90416
10.92	2.88771
10.93	2.91567
10.94	2.89889
10.95	2.9058
10.96	2.88212
10.97	2.88014
10.98	2.93541
10.99	2.89758
11	2.88968
11.01	2.8933
11.02	2.90481
11.03	2.90087
11.04	2.90547
11.05	2.88837
11.06	2.88869
11.07	2.91468
11.08	2.86534
11.09	2.90514
11.1	2.89758
11.11	2.91633
11.12	2.89823
11.13	2.88705
11.14	2.90712
11.15	2.86665
11.16	2.87356
11.17	2.88705
11.18	2.8785
11.19	2.86402
11.2	2.89791
11.21	2.87981
11.22	2.89001
11.23	2.89823
11.24	2.92949
11.25	2.90712
11.26	2.87685
11.27	2.88014
11.28	2.92751
11.29	2.91797
11.3	2.89856
11.31	2.90745
11.32	2.90416
11.33	2.88869
11.34	2.88343
11.35	2.866
11.36	2.89988
11.37	2.89462
11.38	2.89429
11.39	2.87126
11.4	2.86764
11.41	2.85711
11.42	2.86336
11.43	2.8785
11.44	2.87751
11.45	2.90745
11.46	2.89133
11.47	2.86369
11.48	2.87751
11.49	2.89922
11.5	2.89889
11.51	2.90646
11.52	2.89001
11.53	2.89823
11.54	2.86073
11.55	2.87587
11.56	2.87587
11.57	2.89922
11.58	2.91106
11.59	2.91402
11.6	2.94725
11.61	2.87981
11.62	2.88409
11.63	2.88902
11.64	2.89692
11.65	2.8558
11.66	2.87422
11.67	2.88277
11.68	2.86534
11.69	2.86402
11.7	2.86468
11.71	2.88113
11.72	2.86961
11.73	2.87784
11.74	2.87652
11.75	2.87685
11.76	2.8808
11.77	2.88705
11.78	2.8831
11.79	2.88935
11.8	2.88277
11.81	2.9058
11.82	2.85415
11.83	2.88376
11.84	2.89856
11.85	2.90317
11.86	2.88902
11.87	2.89198
11.88	2.89758
11.89	2.89659
11.9	2.90975
11.91	2.90284
11.92	2.89001
11.93	2.91534
11.94	2.8831
11.95	2.89067
11.96	2.91304
11.97	2.88672
11.98	2.85415
11.99	2.88869
12	2.88771
12.01	2.88277
12.02	2.89297
12.03	2.8933
12.04	2.88606
12.05	2.88902
12.06	2.90646
12.07	2.88672
12.08	2.89922
12.09	2.87948
12.1	2.85975
12.11	2.87225
12.12	2.89264
12.13	2.9206
12.14	2.89725
12.15	2.88639
12.16	2.90712
12.17	2.91238
12.18	2.87554
12.19	2.87784
12.2	2.91501
12.21	2.87159
12.22	2.85119
12.23	2.87652
12.24	2.87159
12.25	2.85777
12.26	2.9058
12.27	2.89922
12.28	2.87455
12.29	2.89823
12.3	2.9058
12.31	2.89166
12.32	2.86008
12.33	2.86534
12.34	2.88212
12.35	2.87093
12.36	2.87883
12.37	2.87587
12.38	2.8558
12.39	2.85646
12.4	2.8956
12.41	2.91106
12.42	2.9058
12.43	2.87817
12.44	2.89527
12.45	2.87192
12.46	2.87817
12.47	2.89527
12.48	2.88902
12.49	2.87323
12.5	2.8933
12.51	2.89462
12.52	2.85284
12.53	2.86205
12.54	2.87817
12.55	2.85218
12.56	2.85382
12.57	2.87225
12.58	2.9035
12.59	2.85086
12.6	2.87389
12.61	2.86271
12.62	2.89626
12.63	2.88442
12.64	2.89264
12.65	2.87389
12.66	2.88705
12.67	2.85547
12.68	2.88935
12.69	2.88047
12.7	2.866
12.71	2.89462
12.72	2.86994
12.73	2.8479
12.74	2.87159
12.75	2.86435
12.76	2.89001
12.77	2.8956
12.78	2.89725
12.79	2.86534
12.8	2.90054
12.81	2.91106
12.82	2.91435
12.83	2.89297
12.84	2.8854
12.85	2.86205
12.86	2.89593
12.87	2.90448
12.88	2.9035
12.89	2.92981
12.9	2.90152
12.91	2.9206
12.92	2.86238
12.93	2.8558
12.94	2.88277
12.95	2.91172
12.96	2.89396
12.97	2.89988
12.98	2.89462
12.99	2.92389
13	2.88771
13.01	2.88113
13.02	2.8785
13.03	2.87389
13.04	2.8683
13.05	2.89429
13.06	2.88376
13.07	2.88672
13.08	2.90054
13.09	2.88837
13.1	2.88869
13.11	2.87258
13.12	2.85547
13.13	2.86961
13.14	2.88113
13.15	2.90876
13.16	2.89264
13.17	2.90613
13.18	2.90383
13.19	2.86369
13.2	2.89429
13.21	2.85975
13.22	2.88277
13.23	2.85185
13.24	2.86205
13.25	2.88672
13.26	2.91534
13.27	2.88343
13.28	2.84659
13.29	2.86567
13.3	2.85415
13.31	2.87948
13.32	2.89396
13.33	2.90251
13.34	2.87718
13.35	2.84988
13.36	2.85843
13.37	2.85251
13.38	2.87883
13.39	2.89692
13.4	2.87389
13.41	2.85185
13.42	2.91139
13.43	2.89955
13.44	2.87225
13.45	2.87619
13.46	2.87619
13.47	2.8933
13.48	2.86731
13.49	2.89067
13.5	2.89856
13.51	2.90383
13.52	2.89297
13.53	2.88014
13.54	2.87323
13.55	2.87784
13.56	2.89823
13.57	2.88475
13.58	2.87126
13.59	2.86665
13.6	2.86633
13.61	2.87422
13.62	2.90679
13.63	2.88639
13.64	2.88212
13.65	2.88639
13.66	2.88475
13.67	2.85152
13.68	2.89166
13.69	2.87258
13.7	2.87521
13.71	2.89198
13.72	2.86106
13.73	2.89955
13.74	2.86731
13.75	2.86304
13.76	2.8729
13.77	2.8558
13.78	2.84988
13.79	2.83573
13.8	2.90613
13.81	2.87817
13.82	2.86961
13.83	2.86139
13.84	2.90383
13.85	2.87323
13.86	2.86929
13.87	2.85711
13.88	2.8729
13.89	2.89462
13.9	2.90416
13.91	2.86698
13.92	2.88475
13.93	2.8831
13.94	2.84856
13.95	2.89593
13.96	2.85481
13.97	2.86435
13.98	2.87948
13.99	2.89856
14	2.86698
14.01	2.88738
14.02	2.91106
14.03	2.86139
14.04	2.8535
14.05	2.88113
14.06	2.87093
14.07	2.87258
14.08	2.85382
14.09	2.85021
14.1	2.8729
14.11	2.87093
14.12	2.8683
14.13	2.87027
14.14	2.86501
14.15	2.8535
14.16	2.85975
14.17	2.86336
14.18	2.89922
14.19	2.8785
14.2	2.8558
14.21	2.84757
14.22	2.86534
14.23	2.88705
14.24	2.87784
14.25	2.86633
14.26	2.83771
14.27	2.8479
14.28	2.82882
14.29	2.87817
14.3	2.86205
14.31	2.86402
14.32	2.88047
14.33	2.88277
14.34	2.87027
14.35	2.83244
14.36	2.89001
14.37	2.86567
14.38	2.87225
14.39	2.88771
14.4	2.84856
14.41	2.85152
14.42	2.85909
14.43	2.86106
14.44	2.86468
14.45	2.90481
14.46	2.91008
14.47	2.87652
14.48	2.89791
14.49	2.87948
14.5	2.8933
14.51	2.89988
14.52	2.87192
14.53	2.87587
14.54	2.85021
14.55	2.86435
14.56	2.86369
14.57	2.89823
14.58	2.88968
14.59	2.90284
14.6	2.9137
14.61	2.89001
14.62	2.86698
14.63	2.87192
14.64	2.87915
14.65	2.87685
14.66	2.88343
14.67	2.87093
14.68	2.88508
14.69	2.88475
14.7	2.87389
14.71	2.86336
14.72	2.85415
14.73	2.88376
14.74	2.88573
14.75	2.90942
14.76	2.86106
14.77	2.86567
14.78	2.87027
14.79	2.86435
14.8	2.87652
14.81	2.88212
14.82	2.82553
14.83	2.87422
14.84	2.88146
14.85	2.89429
14.86	2.85481
14.87	2.87422
14.88	2.87554
14.89	2.8831
14.9	2.88146
14.91	2.85744
14.92	2.88508
14.93	2.87422
14.94	2.85218
14.95	2.83475
14.96	2.85218
14.97	2.87883
14.98	2.85909
14.99	2.88705
15	2.89429
15.01	2.86633
15.02	2.87521
15.03	2.84889
15.04	2.86468
15.05	2.86731
15.06	2.87225
15.07	2.88968
15.08	2.89067
15.09	2.88935
15.1	2.90514
15.11	2.88014
15.12	2.86008
15.13	2.85317
15.14	2.84527
15.15	2.85744
15.16	2.88442
15.17	2.87159
15.18	2.87718
15.19	2.89067
15.2	2.89067
15.21	2.85448
15.22	2.85514
15.23	2.87948
15.24	2.87159
15.25	2.88902
15.26	2.89166
15.27	2.88409
15.28	2.89034
15.29	2.86929
15.3	2.88508
15.31	2.86271
15.32	2.86534
15.33	2.87619
15.34	2.85909
15.35	2.8581
15.36	2.88935
15.37	2.85975
15.38	2.85185
15.39	2.87389
15.4	2.86863
15.41	2.85942
15.42	2.88244
15.43	2.88672
15.44	2.86731
15.45	2.84067
15.46	2.8706
15.47	2.84692
15.48	2.86304
15.49	2.87784
15.5	2.86402
15.51	2.88705
15.52	2.88343
15.53	2.85777
15.54	2.866
15.55	2.8831
15.56	2.87587
15.57	2.88606
15.58	2.86172
15.59	2.88804
15.6	2.8558
15.61	2.84593
15.62	2.84001
15.63	2.82126
15.64	2.85777
15.65	2.87323
15.66	2.86665
15.67	2.87093
15.68	2.83113
15.69	2.86073
15.7	2.8683
15.71	2.89034
15.72	2.87521
15.73	2.88146
15.74	2.87093
15.75	2.83803
15.76	2.87192
15.77	2.87422
15.78	2.86008
15.79	2.9206
15.8	2.88837
15.81	2.87981
15.82	2.86863
15.83	2.87817
15.84	2.86665
15.85	2.86304
15.86	2.87389
15.87	2.86929
15.88	2.85185
15.89	2.8535
15.9	2.85514
15.91	2.86961
15.92	2.87685
15.93	2.86731
15.94	2.87258
15.95	2.89001
15.96	2.83113
15.97	2.82159
15.98	2.86369
15.99	2.89791
16	2.89133
16.01	2.85646
16.02	2.89988
16.03	2.85909
16.04	2.84494
16.05	2.87915
16.06	2.86402
16.07	2.8831
16.08	2.8706
16.09	2.87126
16.1	2.86106
16.11	2.85942
16.12	2.86896
16.13	2.85317
16.14	2.85613
16.15	2.86468
16.16	2.85547
16.17	2.85415
16.18	2.87554
16.19	2.86106
16.2	2.85744
16.21	2.87258
16.22	2.88573
16.23	2.85382
16.24	2.8729
16.25	2.87619
16.26	2.85876
16.27	2.89823
16.28	2.86008
16.29	2.82126
16.3	2.85876
16.31	2.88705
16.32	2.85613
16.33	2.85415
16.34	2.88212
16.35	2.84363
16.36	2.83836
16.37	2.83178
16.38	2.8331
16.39	2.86567
16.4	2.86929
16.41	2.88968
16.42	2.84461
16.43	2.84626
16.44	2.87422
16.45	2.85054
16.46	2.84692
16.47	2.86665
16.48	2.87915
16.49	2.85711
16.5	2.87718
16.51	2.85021
16.52	2.8581
16.53	2.86534
16.54	2.90054
16.55	2.87225
16.56	2.89396
16.57	2.86896
16.58	2.8808
16.59	2.87915
16.6	2.86139
16.61	2.82257
16.62	2.86567
16.63	2.86106
16.64	2.86008
16.65	2.86797
16.66	2.86304
16.67	2.85777
16.68	2.85547
16.69	2.84757
16.7	2.86929
16.71	2.84067
16.72	2.85218
16.73	2.86369
16.74	2.89396
16.75	2.90975
16.76	2.8831
16.77	2.85185
16.78	2.84659
16.79	2.88705
16.8	2.8729
16.81	2.82685
16.82	2.85251
16.83	2.87488
16.84	2.8456
16.85	2.86238
16.86	2.87225
16.87	2.89988
16.88	2.88639
16.89	2.86238
16.9	2.87784
16.91	2.88343
16.92	2.87948
16.93	2.86435
16.94	2.86929
16.95	2.87455
16.96	2.84132
16.97	2.88639
16.98	2.89823
16.99	2.85415
17	2.8479
17.01	2.87817
17.02	2.85284
17.03	2.89856
17.04	2.86008
17.05	2.8456
17.06	2.85284
17.07	2.8331
17.08	2.82915
17.09	2.86764
17.1	2.87685
17.11	2.84429
17.12	2.86698
17.13	2.87751
17.14	2.88573
17.15	2.86139
17.16	2.8479
17.17	2.85251
17.18	2.82751
17.19	2.85251
17.2	2.82948
17.21	2.84889
17.22	2.84757
17.23	2.85382
17.24	2.88212
17.25	2.8706
17.26	2.8456
17.27	2.87323
17.28	2.85679
17.29	2.86336
17.3	2.86073
17.31	2.87159
17.32	2.85711
17.33	2.86172
17.34	2.87554
17.35	2.85251
17.36	2.85119
17.37	2.85942
17.38	2.86961
17.39	2.85284
17.4	2.84955
17.41	2.85218
17.42	2.86304
17.43	2.84034
17.44	2.87784
17.45	2.87652
17.46	2.84988
17.47	2.91008
17.48	2.87192
17.49	2.88212
17.5	2.88705
17.51	2.88047
17.52	2.87488
17.53	2.85909
17.54	2.87126
17.55	2.86633
17.56	2.89363
17.57	2.86567
17.58	2.86929
17.59	2.84889
17.6	2.84922
17.61	2.89396
17.62	2.85711
17.63	2.87948
17.64	2.88771
17.65	2.87356
17.66	2.85382
17.67	2.87455
17.68	2.85744
17.69	2.85448
17.7	2.8956
17.71	2.88212
17.72	2.91041
17.73	2.86896
17.74	2.84626
17.75	2.85744
17.76	2.84922
17.77	2.83869
17.78	2.84955
17.79	2.88409
17.8	2.89034
17.81	2.86896
17.82	2.86665
17.83	2.88508
17.84	2.86863
17.85	2.86468
17.86	2.87455
17.87	2.87126
17.88	2.86172
17.89	2.88212
17.9	2.88606
17.91	2.85185
17.92	2.85876
17.93	2.85481
17.94	2.86665
17.95	2.86896
17.96	2.87323
17.97	2.87718
17.98	2.84659
17.99	2.86665
18	2.87356
18.01	2.86073
18.02	2.83705
18.03	2.83442
18.04	2.86304
18.05	2.841
18.06	2.84297
18.07	2.84034
18.08	2.86468
18.09	2.87027
18.1	2.83803
18.11	2.82488
18.12	2.83672
18.13	2.87981
18.14	2.87192
18.15	2.85909
18.16	2.86863
18.17	2.87948
18.18	2.86731
18.19	2.86698
18.2	2.86435
18.21	2.82521
18.22	2.84363
18.23	2.88804
18.24	2.84955
18.25	2.87915
18.26	2.88277
18.27	2.8456
18.28	2.84823
18.29	2.87159
18.3	2.89264
18.31	2.85415
18.32	2.87948
18.33	2.86731
18.34	2.85382
18.35	2.84955
18.36	2.86435
18.37	2.82488
18.38	2.85876
18.39	2.85119
18.4	2.83902
18.41	2.84297
18.42	2.86008
18.43	2.84067
18.44	2.85218
18.45	2.84165
18.46	2.84494
18.47	2.86731
18.48	2.86698
18.49	2.87093
18.5	2.85942
18.51	2.88244
18.52	2.84396
18.53	2.84856
18.54	2.85054
18.55	2.8729
18.56	2.86172
18.57	2.90909
18.58	2.84725
18.59	2.88179
18.6	2.8604
18.61	2.88277
18.62	2.90317
18.63	2.84593
18.64	2.86172
18.65	2.87323
18.66	2.86633
18.67	2.88935
18.68	2.85054
18.69	2.85152
18.7	2.88508
18.71	2.87619
18.72	2.87784
18.73	2.85481
18.74	2.88179
18.75	2.86929
18.76	2.84725
18.77	2.87817
18.78	2.81928
18.79	2.82159
18.8	2.86698
18.81	2.85481
18.82	2.86731
18.83	2.82652
18.84	2.85876
18.85	2.8729
18.86	2.86797
18.87	2.85021
18.88	2.88113
18.89	2.86764
18.9	2.86008
18.91	2.83902
18.92	2.85711
18.93	2.866
18.94	2.86402
18.95	2.87323
18.96	2.88244
18.97	2.88968
18.98	2.8479
18.99	2.86863
19	2.86271
19.01	2.85317
19.02	2.86567
19.03	2.88902
19.04	2.87356
19.05	2.86501
19.06	2.81863
19.07	2.86797
19.08	2.84856
19.09	2.82455
19.1	2.82882
19.11	2.86567
19.12	2.86435
19.13	2.8535
19.14	2.83606
19.15	2.85382
19.16	2.86238
19.17	2.841
19.18	2.84363
19.19	2.85876
19.2	2.87356
19.21	2.85744
19.22	2.88179
19.23	2.88343
19.24	2.86961
19.25	2.86929
19.26	2.85415
19.27	2.84363
19.28	2.841
19.29	2.81238
19.3	2.85646
19.31	2.8331
19.32	2.84955
19.33	2.8558
19.34	2.83376
19.35	2.84725
19.36	2.82389
19.37	2.84955
19.38	2.8854
19.39	2.85711
19.4	2.86468
19.41	2.85711
19.42	2.87784
19.43	2.87422
19.44	2.86106
19.45	2.87751
19.46	2.86304
19.47	2.86205
19.48	2.88968
19.49	2.86139
19.5	2.84396
19.51	2.84264
19.52	2.88212
19.53	2.85054
19.54	2.87323
19.55	2.87258
19.56	2.86961
19.57	2.85744
19.58	2.84231
19.59	2.89791
19.6	2.88902
19.61	2.87422
19.62	2.86238
19.63	2.85382
19.64	2.85054
19.65	2.866
19.66	2.87652
19.67	2.83343
19.68	2.81665
19.69	2.85481
19.7	2.85119
19.71	2.8729
19.72	2.84165
19.73	2.88705
19.74	2.84297
19.75	2.8433
19.76	2.866
19.77	2.86435
19.78	2.88639
19.79	2.87258
19.8	2.87356
19.81	2.87619
19.82	2.84593
19.83	2.86008
19.84	2.85152
19.85	2.8683
19.86	2.85777
19.87	2.87751
19.88	2.86008
19.89	2.8808
19.9	2.85317
19.91	2.85547
19.92	2.85251
19.93	2.86073
19.94	2.87159
19.95	2.84429
19.96	2.8683
19.97	2.86994
19.98	2.87488
19.99	2.86994
20	2.85415
20.01	2.81665
20.02	2.82257
20.03	2.87554
20.04	2.85317
20.05	2.88113
20.06	2.86008
20.07	2.88244
20.08	2.87817
20.09	2.85382
20.1	2.84988
20.11	2.85679
20.12	2.84494
20.13	2.87619
20.14	2.86435
20.15	2.83902
20.16	2.83244
20.17	2.84494
20.18	2.8604
20.19	2.84659
20.2	2.85481
20.21	2.84396
20.22	2.86567
20.23	2.83343
20.24	2.84165
20.25	2.8558
20.26	2.81896
20.27	2.84264
20.28	2.88212
20.29	2.89067
20.3	2.90251
20.31	2.86863
20.32	2.83836
20.33	2.84363
20.34	2.87948
20.35	2.84297
20.36	2.86139
20.37	2.86534
20.38	2.8785
20.39	2.83935
20.4	2.86698
20.41	2.86929
20.42	2.85021
20.43	2.85317
20.44	2.8558
20.45	2.88804
20.46	2.84231
20.47	2.84988
20.48	2.8535
20.49	2.83771
20.5	2.84725
20.51	2.85415
20.52	2.86106
20.53	2.84527
20.54	2.8604
20.55	2.85744
20.56	2.86172
20.57	2.85744
20.58	2.84363
20.59	2.85613
20.6	2.8456
20.61	2.8308
20.62	2.84593
20.63	2.86238
20.64	2.84889
20.65	2.87587
20.66	2.85218
20.67	2.82553
20.68	2.86172
20.69	2.85679
20.7	2.8354
20.71	2.85185
20.72	2.84823
20.73	2.88639
20.74	2.89198
20.75	2.8683
20.76	2.86665
20.77	2.87521
20.78	2.84626
20.79	2.8558
20.8	2.87455
20.81	2.89264
20.82	2.85547
20.83	2.8808
20.84	2.85679
20.85	2.86797
20.86	2.87981
20.87	2.85909
20.88	2.8581
20.89	2.86304
20.9	2.86336
20.91	2.87258
20.92	2.8831
20.93	2.85843
20.94	2.85777
20.95	2.83014
20.96	2.86501
20.97	2.85975
20.98	2.87356
20.99	2.87488
21	2.86501
21.01	2.86073
21.02	2.86073
21.03	2.8535
21.04	2.84034
21.05	2.82915
21.06	2.85415
21.07	2.86369
21.08	2.85382
21.09	2.8581
21.1	2.83409
21.11	2.84165
21.12	2.87389
21.13	2.87652
21.14	2.83738
21.15	2.85646
21.16	2.81402
21.17	2.83935
21.18	2.85382
21.19	2.84692
21.2	2.85317
21.21	2.84067
21.22	2.85646
21.23	2.84757
21.24	2.87389
21.25	2.86731
21.26	2.8604
21.27	2.84757
21.28	2.8354
21.29	2.84001
21.3	2.88343
21.31	2.91041
21.32	2.88869
21.33	2.84725
21.34	2.86764
21.35	2.84922
21.36	2.84429
21.37	2.85218
21.38	2.84955
21.39	2.84001
21.4	2.85646
21.41	2.85514
21.42	2.83409
21.43	2.84725
21.44	2.85744
21.45	2.84132
21.46	2.86961
21.47	2.85711
21.48	2.8581
21.49	2.85054
21.5	2.86665
21.51	2.87587
21.52	2.88639
21.53	2.88277
21.54	2.87356
21.55	2.86468
21.56	2.84889
21.57	2.86139
21.58	2.86567
21.59	2.85054
21.6	2.8785
21.61	2.84626
21.62	2.87784
21.63	2.84593
21.64	2.83705
21.65	2.85185
21.66	2.86238
21.67	2.83442
21.68	2.85448
21.69	2.86172
21.7	2.85481
21.71	2.85481
21.72	2.85185
21.73	2.83376
21.74	2.86797
21.75	2.89692
21.76	2.90745
21.77	2.88606
21.78	2.8854
21.79	2.83639
21.8	2.81928
21.81	2.83211
21.82	2.86501
21.83	2.85547
21.84	2.85152
21.85	2.8683
21.86	2.84198
21.87	2.86304
21.88	2.83113
21.89	2.87192
21.9	2.8604
21.91	2.86435
21.92	2.88902
21.93	2.88179
21.94	2.85119
21.95	2.87488
21.96	2.8729
21.97	2.85547
21.98	2.8433
21.99	2.84856
22	2.8456
22.01	2.88672
22.02	2.9058
22.03	2.86534
22.04	2.88475
22.05	2.85021
22.06	2.85975
22.07	2.84856
22.08	2.84297
22.09	2.8729
22.1	2.84955
22.11	2.85415
22.12	2.85679
22.13	2.86698
22.14	2.90284
22.15	2.86205
22.16	2.82422
22.17	2.85251
22.18	2.8456
22.19	2.86731
22.2	2.85777
22.21	2.86106
22.22	2.85777
22.23	2.86205
22.24	2.91304
22.25	2.84461
22.26	2.8433
22.27	2.86073
22.28	2.87521
22.29	2.84823
22.3	2.87587
22.31	2.87093
22.32	2.86304
22.33	2.8729
22.34	2.85152
22.35	2.85152
22.36	2.86633
22.37	2.88014
22.38	2.89264
22.39	2.88047
22.4	2.84527
22.41	2.84626
22.42	2.83573
22.43	2.8456
22.44	2.82685
22.45	2.84001
22.46	2.85481
22.47	2.88113
22.48	2.87258
22.49	2.85744
22.5	2.87027
22.51	2.87323
22.52	2.87981
22.53	2.86929
22.54	2.87488
22.55	2.8581
22.56	2.86205
22.57	2.86501
22.58	2.83869
22.59	2.82685
22.6	2.83507
22.61	2.84429
22.62	2.8331
22.63	2.84889
22.64	2.82586
22.65	2.86172
22.66	2.85843
22.67	2.841
22.68	2.86139
22.69	2.86271
22.7	2.86336
22.71	2.85547
22.72	2.87883
22.73	2.85679
22.74	2.88179
22.75	2.86764
22.76	2.86929
22.77	2.88968
22.78	2.8785
22.79	2.88212
22.8	2.86633
22.81	2.86764
22.82	2.88442
22.83	2.86764
22.84	2.84823
22.85	2.87192
22.86	2.83376
22.87	2.84889
22.88	2.83738
22.89	2.86172
22.9	2.88376
22.91	2.88047
22.92	2.85185
22.93	2.85382
22.94	2.86468
22.95	2.83836
22.96	2.8558
22.97	2.87817
22.98	2.8831
22.99	2.8933
23	2.86863
23.01	2.82553
23.02	2.8104
23.03	2.85054
23.04	2.83935
23.05	2.8456
23.06	2.88968
23.07	2.91106
23.08	2.87389
23.09	2.86633
23.1	2.85218
23.11	2.83639
23.12	2.82488
23.13	2.85284
23.14	2.86698
23.15	2.83277
23.16	2.86139
23.17	2.86271
23.18	2.82685
23.19	2.83738
23.2	2.83507
23.21	2.87455
23.22	2.85448
23.23	2.83244
23.24	2.87915
23.25	2.86205
23.26	2.85547
23.27	2.85975
23.28	2.85317
23.29	2.83639
23.3	2.85152
23.31	2.82652
23.32	2.86073
23.33	2.88475
23.34	2.86205
23.35	2.8206
23.36	2.87126
23.37	2.86731
23.38	2.85843
23.39	2.87093
23.4	2.86961
23.41	2.86501
23.42	2.86797
23.43	2.83442
23.44	2.85054
23.45	2.87619
23.46	2.83047
23.47	2.85251
23.48	2.85547
23.49	2.86633
23.5	2.81567
23.51	2.83738
23.52	2.89429
23.53	2.85711
23.54	2.8604
23.55	2.84856
23.56	2.85054
23.57	2.86106
23.58	2.86402
23.59	2.8604
23.6	2.8354
23.61	2.84856
23.62	2.88902
23.63	2.86764
23.64	2.83409
23.65	2.84461
23.66	2.84231
23.67	2.86435
23.68	2.86402
23.69	2.84001
23.7	2.85415
23.71	2.85284
23.72	2.8558
23.73	2.86008
23.74	2.86863
23.75	2.8729
23.76	2.88705
23.77	2.88508
23.78	2.8706
23.79	2.86896
23.8	2.86665
23.81	2.8558
23.82	2.8558
23.83	2.86369
23.84	2.87422
23.85	2.85514
23.86	2.84659
23.87	2.83639
23.88	2.84198
23.89	2.85744
23.9	2.8433
23.91	2.8433
23.92	2.8558
23.93	2.86929
23.94	2.85284
23.95	2.83507
23.96	2.83244
23.97	2.83803
23.98	2.82455
23.99	2.86961
24	2.85777
24.01	2.83639
24.02	2.83968
24.03	2.8331
24.04	2.87093
24.05	2.86501
24.06	2.8433
24.07	2.82323
24.08	2.83277
24.09	2.87488
24.1	2.86106
24.11	2.85218
24.12	2.8308
24.13	2.82159
24.14	2.85679
24.15	2.87817
24.16	2.85942
24.17	2.85711
24.18	2.87817
24.19	2.84757
24.2	2.83244
24.21	2.83573
24.22	2.87685
24.23	2.87192
24.24	2.85481
24.25	2.8433
24.26	2.86304
24.27	2.85185
24.28	2.86336
24.29	2.866
24.3	2.8558
24.31	2.83507
24.32	2.85975
24.33	2.8558
24.34	2.84626
24.35	2.84856
24.36	2.85251
24.37	2.80481
24.38	2.85415
24.39	2.83639
24.4	2.841
24.41	2.82257
24.42	2.83902
24.43	2.8785
24.44	2.88837
24.45	2.87883
24.46	2.83935
24.47	2.87356
24.48	2.86534
24.49	2.88771
24.5	2.84527
24.51	2.84001
24.52	2.81106
24.53	2.86731
24.54	2.86797
24.55	2.87258
24.56	2.86271
24.57	2.85547
24.58	2.84626
24.59	2.86929
24.6	2.87422
24.61	2.85777
24.62	2.84396
24.63	2.84363
24.64	2.86435
24.65	2.86698
24.66	2.8604
24.67	2.82718
24.68	2.83014
24.69	2.83146
24.7	2.83836
24.71	2.85185
24.72	2.8785
24.73	2.84264
24.74	2.83277
24.75	2.83507
24.76	2.82159
24.77	2.86534
24.78	2.8854
24.79	2.85185
24.8	2.85744
24.81	2.82817
24.82	2.85382
24.83	2.88837
24.84	2.85547
24.85	2.8229
24.86	2.85646
24.87	2.86797
24.88	2.83935
24.89	2.84856
24.9	2.83475
24.91	2.86172
24.92	2.87455
24.93	2.84955
24.94	2.83705
24.95	2.85744
24.96	2.86896
24.97	2.86665
24.98	2.82126
24.99	2.86665
25	2.87422
25.01	2.83738
25.02	2.83705
25.03	2.87817
25.04	2.88146
25.05	2.85119
25.06	2.85679
25.07	2.85054
25.08	2.85514
25.09	2.86567
25.1	2.86468
25.11	2.83803
25.12	2.83771
25.13	2.87323
25.14	2.87817
25.15	2.89429
25.16	2.88179
25.17	2.82027
25.18	2.83639
25.19	2.81731
25.2	2.84955
25.21	2.87652
25.22	2.83409
25.23	2.84593
25.24	2.85218
25.25	2.85481
25.26	2.82521
25.27	2.84396
25.28	2.866
25.29	2.82882
25.3	2.8479
25.31	2.85711
25.32	2.86336
25.33	2.83902
25.34	2.82389
25.35	2.84494
25.36	2.88804
25.37	2.88014
25.38	2.87751
25.39	2.83869
25.4	2.84363
25.41	2.83639
25.42	2.85021
25.43	2.84429
25.44	2.84396
25.45	2.82751
25.46	2.85382
25.47	2.85415
25.48	2.84725
25.49	2.80909
25.5	2.82882
25.51	2.85086
25.52	2.8479
25.53	2.86731
25.54	2.8581
25.55	2.87488
25.56	2.84165
25.57	2.86994
25.58	2.841
25.59	2.85021
25.6	2.86271
25.61	2.84461
25.62	2.86797
25.63	2.86797
25.64	2.88837
25.65	2.85317
25.66	2.81435
25.67	2.83244
25.68	2.8831
25.69	2.86336
25.7	2.83343
25.71	2.8535
25.72	2.86336
25.73	2.89133
25.74	2.86238
25.75	2.84527
25.76	2.84757
25.77	2.86698
25.78	2.89034
25.79	2.88014
25.8	2.86402
25.81	2.85448
25.82	2.8683
25.83	2.85909
25.84	2.84988
25.85	2.83211
25.86	2.85119
25.87	2.83803
25.88	2.8479
25.89	2.84363
25.9	2.84396
25.91	2.87652
25.92	2.86106
25.93	2.82422
25.94	2.84034
25.95	2.84198
25.96	2.8456
25.97	2.86929
25.98	2.86567
25.99	2.85054
26	2.84889
26.01	2.86633
26.02	2.84264
26.03	2.84297
26.04	2.87521
26.05	2.87389
26.06	2.84626
26.07	2.87784
26.08	2.85119
26.09	2.86271
26.1	2.8581
26.11	2.82323
26.12	2.85086
26.13	2.87225
26.14	2.83211
26.15	2.83475
26.16	2.83639
26.17	2.8479
26.18	2.83475
26.19	2.82981
26.2	2.84461
26.21	2.84988
26.22	2.85218
26.23	2.83968
26.24	2.85382
26.25	2.87422
26.26	2.85317
26.27	2.82817
26.28	2.86073
26.29	2.86073
26.3	2.84757
26.31	2.85251
26.32	2.83771
26.33	2.8581
26.34	2.84297
26.35	2.86534
26.36	2.8433
26.37	2.87685
26.38	2.84067
26.39	2.85679
26.4	2.86139
26.41	2.85284
26.42	2.84725
26.43	2.84034
26.44	2.83442
26.45	2.86205
26.46	2.86534
26.47	2.88738
26.48	2.8479
26.49	2.86205
26.5	2.85284
26.51	2.85547
26.52	2.86304
26.53	2.83277
26.54	2.8706
26.55	2.83277
26.56	2.83803
26.57	2.81303
26.58	2.86172
26.59	2.83211
26.6	2.88047
26.61	2.86896
26.62	2.84593
26.63	2.84297
26.64	2.82784
26.65	2.83836
26.66	2.83935
26.67	2.83606
26.68	2.85218
26.69	2.8456
26.7	2.84132
26.71	2.8285
26.72	2.83968
26.73	2.81238
26.74	2.85514
26.75	2.82817
26.76	2.8308
26.77	2.81764
26.78	2.8354
26.79	2.87521
26.8	2.82027
26.81	2.84001
26.82	2.8479
26.83	2.84659
26.84	2.83869
26.85	2.85843
26.86	2.85415
26.87	2.82224
26.88	2.83146
26.89	2.84231
26.9	2.85152
26.91	2.82784
26.92	2.85448
26.93	2.84132
26.94	2.83178
26.95	2.82652
26.96	2.82586
26.97	2.82488
26.98	2.85152
26.99	2.85679
27	2.86929
27.01	2.88409
27.02	2.87587
27.03	2.84593
27.04	2.85646
27.05	2.87619
27.06	2.8535
27.07	2.82455
27.08	2.85679
27.09	2.84725
27.1	2.85711
27.11	2.85942
27.12	2.84132
27.13	2.8785
27.14	2.84823
27.15	2.83606
27.16	2.84725
27.17	2.85679
27.18	2.83771
27.19	2.8308
27.2	2.86567
27.21	2.83935
27.22	2.84297
27.23	2.84231
27.24	2.81896
27.25	2.82553
27.26	2.83902
27.27	2.82784
27.28	2.85251
27.29	2.83738
27.3	2.83146
27.31	2.8354
27.32	2.8479
27.33	2.8433
27.34	2.8308
27.35	2.85054
27.36	2.83507
27.37	2.86172
27.38	2.86665
27.39	2.86468
27.4	2.86402
27.41	2.86435
27.42	2.8433
27.43	2.85646
27.44	2.85843
27.45	2.82948
27.46	2.83507
27.47	2.84494
27.48	2.88047
27.49	2.85777
27.5	2.81369
27.51	2.8683
27.52	2.8706
27.53	2.85514
27.54	2.85152
27.55	2.85711
27.56	2.84823
27.57	2.84297
27.58	2.85711
27.59	2.86698
27.6	2.84823
27.61	2.86106
27.62	2.83343
27.63	2.8354
27.64	2.83146
27.65	2.83573
27.66	2.82718
27.67	2.841
27.68	2.84429
27.69	2.83475
27.7	2.84527
27.71	2.85909
27.72	2.88212
27.73	2.85777
27.74	2.87981
27.75	2.8581
27.76	2.83606
27.77	2.83507
27.78	2.84396
27.79	2.85251
27.8	2.83343
27.81	2.84034
27.82	2.86698
27.83	2.85777
27.84	2.85646
27.85	2.8535
27.86	2.83244
27.87	2.83968
27.88	2.85021
27.89	2.84264
27.9	2.83113
27.91	2.83803
27.92	2.83672
27.93	2.85415
27.94	2.87981
27.95	2.86008
27.96	2.85086
27.97	2.85777
27.98	2.84165
27.99	2.85744
28	2.86106
28.01	2.85317
28.02	2.83277
28.03	2.81007
28.04	2.83573
28.05	2.85514
28.06	2.84396
28.07	2.85547
28.08	2.80974
28.09	2.83672
28.1	2.82981
28.11	2.83902
28.12	2.82751
28.13	2.86764
28.14	2.84363
28.15	2.84856
28.16	2.86402
28.17	2.84659
28.18	2.84494
28.19	2.85843
28.2	2.82586
28.21	2.83836
28.22	2.84231
28.23	2.84955
28.24	2.8479
28.25	2.84823
28.26	2.84067
28.27	2.8683
28.28	2.83475
28.29	2.8479
28.3	2.87389
28.31	2.86369
28.32	2.84461
28.33	2.86731
28.34	2.85481
28.35	2.82521
28.36	2.83409
28.37	2.87389
28.38	2.8683
28.39	2.85251
28.4	2.85843
28.41	2.85317
28.42	2.84856
28.43	2.83771
28.44	2.86139
28.45	2.84626
28.46	2.82981
28.47	2.84461
28.48	2.82948
28.49	2.81435
28.5	2.866
28.51	2.87225
28.52	2.84165
28.53	2.82356
28.54	2.88212
28.55	2.85843
28.56	2.83475
28.57	2.80777
28.58	2.84659
28.59	2.86008
28.6	2.84429
28.61	2.8479
28.62	2.84363
28.63	2.84165
28.64	2.8479
28.65	2.85613
28.66	2.83244
28.67	2.86534
28.68	2.83277
28.69	2.84001
28.7	2.84823
28.71	2.83343
28.72	2.83409
28.73	2.8535
28.74	2.84396
28.75	2.81994
28.76	2.8535
28.77	2.8785
28.78	2.86863
28.79	2.84922
28.8	2.841
28.81	2.85021
28.82	2.85185
28.83	2.85646
28.84	2.86468
28.85	2.83968
28.86	2.83178
28.87	2.83771
28.88	2.86172
28.89	2.85744
28.9	2.85942
28.91	2.83639
28.92	2.86468
28.93	2.89133
28.94	2.8706
28.95	2.87619
28.96	2.86435
28.97	2.86468
28.98	2.89166
28.99	2.87389
29	2.86304
29.01	2.82619
29.02	2.85415
29.03	2.8581
29.04	2.84297
29.05	2.82455
29.06	2.82882
29.07	2.83244
29.08	2.86764
29.09	2.84494
29.1	2.82455
29.11	2.84626
29.12	2.80514
29.13	2.86534
29.14	2.84593
29.15	2.85086
29.16	2.85514
29.17	2.86567
29.18	2.83409
29.19	2.8331
29.2	2.84955
29.21	2.85218
29.22	2.83014
29.23	2.84231
29.24	2.87027
29.25	2.85054
29.26	2.85054
29.27	2.8604
29.28	2.86633
29.29	2.84429
29.3	2.84955
29.31	2.82981
29.32	2.82915
29.33	2.83836
29.34	2.83244
29.35	2.8433
29.36	2.85777
29.37	2.84955
29.38	2.86369
29.39	2.85251
29.4	2.86238
29.41	2.86863
29.42	2.8479
29.43	2.8535
29.44	2.82224
29.45	2.8433
29.46	2.87258
29.47	2.84067
29.48	2.82915
29.49	2.8308
29.5	2.8558
29.51	2.87948
29.52	2.84757
29.53	2.84988
29.54	2.88442
29.55	2.83738
29.56	2.83343
29.57	2.841
29.58	2.86172
29.59	2.88047
29.6	2.84725
29.61	2.85679
29.62	2.8535
29.63	2.85942
29.64	2.83178
29.65	2.81764
29.66	2.81632
29.67	2.85185
29.68	2.83047
29.69	2.82455
29.7	2.84429
29.71	2.83376
29.72	2.8785
29.73	2.85909
29.74	2.83902
29.75	2.83902
29.76	2.88475
29.77	2.83442
29.78	2.82488
29.79	2.85152
29.8	2.85054
29.81	2.85448
29.82	2.86336
29.83	2.84823
29.84	2.85777
29.85	2.85843
29.86	2.84264
29.87	2.8183
29.88	2.83376
29.89	2.83869
29.9	2.84889
29.91	2.83507
29.92	2.84429
29.93	2.85086
29.94	2.83935
29.95	2.84659
29.96	2.84067
29.97	2.86435
29.98	2.86698
29.99	2.81599
30	2.85646
30.01	2.82915
30.02	2.80185
30.03	2.81797
30.04	2.81303
30.05	2.84396
30.06	2.88146
30.07	2.84396
30.08	2.8183
30.09	2.84461
30.1	2.83869
30.11	2.83014
30.12	2.82586
30.13	2.83803
30.14	2.84955
30.15	2.82685
30.16	2.82784
30.17	2.86271
30.18	2.89297
30.19	2.85284
30.2	2.83244
30.21	2.84659
30.22	2.85547
30.23	2.84626
30.24	2.81994
30.25	2.85679
30.26	2.8604
30.27	2.82192
30.28	2.86238
30.29	2.81172
30.3	2.85284
30.31	2.83376
30.32	2.81271
30.33	2.83738
30.34	2.85975
30.35	2.85744
30.36	2.84461
30.37	2.86172
30.38	2.85843
30.39	2.83968
30.4	2.8558
30.41	2.84889
30.42	2.8456
30.43	2.83244
30.44	2.83507
30.45	2.84593
30.46	2.82948
30.47	2.8229
30.48	2.83836
30.49	2.81402
30.5	2.8183
30.51	2.84823
30.52	2.85679
30.53	2.85448
30.54	2.84264
30.55	2.83836
30.56	2.86139
30.57	2.8535
30.58	2.85613
30.59	2.85415
30.6	2.84034
30.61	2.82652
30.62	2.8604
30.63	2.82389
30.64	2.82126
30.65	2.82027
30.66	2.84264
30.67	2.85613
30.68	2.85317
30.69	2.84165
30.7	2.85119
30.71	2.8831
30.72	2.87488
30.73	2.86633
30.74	2.80547
30.75	2.85975
30.76	2.84001
30.77	2.81007
30.78	2.86863
30.79	2.88376
30.8	2.84527
30.81	2.8285
30.82	2.83705
30.83	2.84429
30.84	2.85679
30.85	2.83803
30.86	2.85711
30.87	2.84757
30.88	2.85744
30.89	2.84034
30.9	2.82159
30.91	2.79922
30.92	2.83277
30.93	2.83573
30.94	2.83442
30.95	2.81698
30.96	2.86172
30.97	2.87521
30.98	2.84396
30.99	2.83803
31	2.8354
31.01	2.86172
31.02	2.87159
31.03	2.85448
31.04	2.84297
31.05	2.81435
31.06	2.83803
31.07	2.83968
31.08	2.83113
31.09	2.82521
31.1	2.83014
31.11	2.84626
31.12	2.85119
31.13	2.85054
31.14	2.82224
31.15	2.83738
31.16	2.85415
31.17	2.85185
31.18	2.84955
31.19	2.83113
31.2	2.8456
31.21	2.866
31.22	2.85119
31.23	2.83902
31.24	2.84856
31.25	2.87192
31.26	2.88376
31.27	2.83573
31.28	2.866
31.29	2.86567
31.3	2.8456
31.31	2.8308
31.32	2.84067
31.33	2.8229
31.34	2.84823
31.35	2.84692
31.36	2.84297
31.37	2.86008
31.38	2.85514
31.39	2.82784
31.4	2.83277
31.41	2.8604
31.42	2.86336
31.43	2.83442
31.44	2.82751
31.45	2.82257
31.46	2.85054
31.47	2.84527
31.48	2.80909
31.49	2.80382
31.5	2.87488
31.51	2.85251
31.52	2.85086
31.53	2.9081
31.54	2.87159
31.55	2.84264
31.56	2.86731
31.57	2.85514
31.58	2.85777
31.59	2.85744
31.6	2.82685
31.61	2.88475
31.62	2.87652
31.63	2.86106
31.64	2.84264
31.65	2.84132
31.66	2.85744
31.67	2.85547
31.68	2.87521
31.69	2.85382
31.7	2.8229
31.71	2.85119
31.72	2.86402
31.73	2.85744
31.74	2.85415
31.75	2.84001
31.76	2.8706
31.77	2.88244
31.78	2.85975
31.79	2.84955
31.8	2.8285
31.81	2.83606
31.82	2.84494
31.83	2.81567
31.84	2.84001
31.85	2.83475
31.86	2.82257
31.87	2.80481
31.88	2.86304
31.89	2.86304
31.9	2.84494
31.91	2.85284
31.92	2.80317
31.93	2.841
31.94	2.84757
31.95	2.8604
31.96	2.84593
31.97	2.84922
31.98	2.85317
31.99	2.83705
32	2.86797
32.01	2.87554
32.02	2.87718
32.03	2.86402
32.04	2.86863
32.05	2.83738
32.06	2.83113
32.07	2.84264
32.08	2.8558
32.09	2.85218
32.1	2.83705
32.11	2.83244
32.12	2.84494
32.13	2.83113
32.14	2.86994
32.15	2.83705
32.16	2.88343
32.17	2.83606
32.18	2.84132
32.19	2.84955
32.2	2.8354
32.21	2.86271
32.22	2.86106
32.23	2.84264
32.24	2.82553
32.25	2.83672
32.26	2.85415
32.27	2.79724
32.28	2.85481
32.29	2.86205
32.3	2.85218
32.31	2.84231
32.32	2.86205
32.33	2.81567
32.34	2.82553
32.35	2.8206
32.36	2.81567
32.37	2.8433
32.38	2.82356
32.39	2.82027
32.4	2.84067
32.41	2.82521
32.42	2.79988
32.43	2.81073
32.44	2.83672
32.45	2.8558
32.46	2.84034
32.47	2.84034
32.48	2.83277
32.49	2.85218
32.5	2.82027
32.51	2.86008
32.52	2.85711
32.53	2.86271
32.54	2.8479
32.55	2.83902
32.56	2.86073
32.57	2.85711
32.58	2.87093
32.59	2.84264
32.6	2.8433
32.61	2.84067
32.62	2.82389
32.63	2.82356
32.64	2.83475
32.65	2.80218
32.66	2.82323
32.67	2.8479
32.68	2.8081
32.69	2.83705
32.7	2.82027
32.71	2.81896
32.72	2.84856
32.73	2.866
32.74	2.82159
32.75	2.8285
32.76	2.84988
32.77	2.83178
32.78	2.80185
32.79	2.8479
32.8	2.8331
32.81	2.81567
32.82	2.82882
32.83	2.83442
32.84	2.82619
32.85	2.80909
32.86	2.84988
32.87	2.82389
32.88	2.85382
32.89	2.85777
32.9	2.84067
32.91	2.83475
32.92	2.86139
32.93	2.87389
32.94	2.83409
32.95	2.81698
32.96	2.83705
32.97	2.82817
32.98	2.82126
32.99	2.80843
33	2.84132
33.01	2.86008
33.02	2.82356
33.03	2.82948
33.04	2.82817
33.05	2.81303
33.06	2.80645
33.07	2.82093
33.08	2.82389
33.09	2.83836
33.1	2.86238
33.11	2.85251
33.12	2.82521
33.13	2.85909
33.14	2.85382
33.15	2.8479
33.16	2.84363
33.17	2.83277
33.18	2.86468
33.19	2.85679
33.2	2.84856
33.21	2.85547
33.22	2.86468
33.23	2.87685
33.24	2.85185
33.25	2.82619
33.26	2.85218
33.27	2.82948
33.28	2.82027
33.29	2.85481
33.3	2.81698
33.31	2.83738
33.32	2.82882
33.33	2.82685
33.34	2.83836
33.35	2.8354
33.36	2.8604
33.37	2.86402
33.38	2.86106
33.39	2.84363
33.4	2.83935
33.41	2.85021
33.42	2.83836
33.43	2.86863
33.44	2.84165
33.45	2.84692
33.46	2.8456
33.47	2.83244
33.48	2.86073
33.49	2.85843
33.5	2.83738
33.51	2.83211
33.52	2.85218
33.53	2.84132
33.54	2.82784
33.55	2.82882
33.56	2.81797
33.57	2.83277
33.58	2.81928
33.59	2.79461
33.6	2.81731
33.61	2.83738
33.62	2.84001
33.63	2.84494
33.64	2.84856
33.65	2.88902
33.66	2.84363
33.67	2.8331
33.68	2.81271
33.69	2.85975
33.7	2.8479
33.71	2.83639
33.72	2.86139
33.73	2.82751
33.74	2.78902
33.75	2.83672
33.76	2.86929
33.77	2.8354
33.78	2.82915
33.79	2.83047
33.8	2.81665
33.81	2.841
33.82	2.8581
33.83	2.81797
33.84	2.84692
33.85	2.84461
33.86	2.83014
33.87	2.83146
33.88	2.81731
33.89	2.82948
33.9	2.84001
33.91	2.83705
33.92	2.82586
33.93	2.86567
33.94	2.84692
33.95	2.82257
33.96	2.84527
33.97	2.8558
33.98	2.8604
33.99	2.85284
34	2.85679
34.01	2.87323
34.02	2.83376
34.03	2.81106
34.04	2.86501
34.05	2.85119
34.06	2.82455
34.07	2.83902
34.08	2.84922
34.09	2.87422
34.1	2.85415
34.11	2.8535
34.12	2.84692
34.13	2.84067
34.14	2.83771
34.15	2.84823
34.16	2.87718
34.17	2.86863
34.18	2.85284
34.19	2.83409
34.2	2.8479
34.21	2.88212
34.22	2.86764
34.23	2.86304
34.24	2.84165
34.25	2.8535
34.26	2.84955
34.27	2.85744
34.28	2.85711
34.29	2.85975
34.3	2.87521
34.31	2.85777
34.32	2.84297
34.33	2.84757
34.34	2.86698
34.35	2.8308
34.36	2.83902
34.37	2.84198
34.38	2.82751
34.39	2.83869
34.4	2.88014
34.41	2.85119
34.42	2.8354
34.43	2.87225
34.44	2.8558
34.45	2.84626
34.46	2.84889
34.47	2.83507
34.48	2.82257
34.49	2.84527
34.5	2.86336
34.51	2.84231
34.52	2.83277
34.53	2.83672
34.54	2.83376
34.55	2.84264
34.56	2.85448
34.57	2.8308
34.58	2.8581
34.59	2.83935
34.6	2.82652
34.61	2.82553
34.62	2.84363
34.63	2.86402
34.64	2.85218
34.65	2.87521
34.66	2.83738
34.67	2.83935
34.68	2.83672
34.69	2.83146
34.7	2.84527
34.71	2.83639
34.72	2.84297
34.73	2.85909
34.74	2.85514
34.75	2.87784
34.76	2.84165
34.77	2.84725
34.78	2.84461
34.79	2.85185
34.8	2.85021
34.81	2.84001
34.82	2.83113
34.83	2.85218
34.84	2.83211
34.85	2.82356
34.86	2.82882
34.87	2.866
34.88	2.83968
34.89	2.85547
34.9	2.87422
34.91	2.87258
34.92	2.85021
34.93	2.84494
34.94	2.8581
34.95	2.85711
34.96	2.83639
34.97	2.87619
34.98	2.84396
34.99	2.84988
35	2.83606
35.01	2.8581
35.02	2.86633
35.03	2.85086
35.04	2.84132
35.05	2.85382
35.06	2.82422
35.07	2.84856
35.08	2.87718
35.09	2.84264
35.1	2.81435
35.11	2.84264
35.12	2.8785
35.13	2.83672
35.14	2.8604
35.15	2.82224
35.16	2.80613
35.17	2.80514
35.18	2.84231
35.19	2.86534
35.2	2.85744
35.21	2.82422
35.22	2.83639
35.23	2.84165
35.24	2.86567
35.25	2.86896
35.26	2.87488
35.27	2.83409
35.28	2.84922
35.29	2.86073
35.3	2.85448
35.31	2.8456
35.32	2.87554
35.33	2.84396
35.34	2.84067
35.35	2.82323
35.36	2.83343
35.37	2.8683
35.38	2.82652
35.39	2.83902
35.4	2.83968
35.41	2.84823
35.42	2.82685
35.43	2.84396
35.44	2.85679
35.45	2.83442
35.46	2.81501
35.47	2.83639
35.48	2.83178
35.49	2.8058
35.5	2.82553
35.51	2.86073
35.52	2.8706
35.53	2.83606
35.54	2.84231
35.55	2.8183
35.56	2.82126
35.57	2.84955
35.58	2.85119
35.59	2.8206
35.6	2.84889
35.61	2.82915
35.62	2.85448
35.63	2.83771
35.64	2.83146
35.65	2.84889
35.66	2.84955
35.67	2.83113
35.68	2.85218
35.69	2.841
35.7	2.83902
35.71	2.84396
35.72	2.80218
35.73	2.84396
35.74	2.87126
35.75	2.86665
35.76	2.84297
35.77	2.84165
35.78	2.84692
35.79	2.87587
35.8	2.83738
35.81	2.85021
35.82	2.81172
35.83	2.83376
35.84	2.84725
35.85	2.86534
35.86	2.8354
35.87	2.82488
35.88	2.86929
35.89	2.84034
35.9	2.84988
35.91	2.83409
35.92	2.82323
35.93	2.82422
35.94	2.84034
35.95	2.83409
35.96	2.84856
35.97	2.86896
35.98	2.84067
35.99	2.85514
36	2.85975
36.01	2.87784
36.02	2.84363
36.03	2.82455
36.04	2.82192
36.05	2.83935
36.06	2.8354
36.07	2.84132
36.08	2.84692
36.09	2.86336
36.1	2.85119
36.11	2.83771
36.12	2.83211
36.13	2.82093
36.14	2.83573
36.15	2.85909
36.16	2.88277
36.17	2.87422
36.18	2.84461
36.19	2.86369
36.2	2.82751
36.21	2.81863
36.22	2.85514
36.23	2.86172
36.24	2.81994
36.25	2.83869
36.26	2.85679
36.27	2.84692
36.28	2.84856
36.29	2.83803
36.3	2.89363
36.31	2.85514
36.32	2.84363
36.33	2.86402
36.34	2.84231
36.35	2.82422
36.36	2.82422
36.37	2.82356
36.38	2.82257
36.39	2.79428
36.4	2.83902
36.41	2.8354
36.42	2.86435
36.43	2.84692
36.44	2.83343
36.45	2.85054
36.46	2.85646
36.47	2.87718
36.48	2.85744
36.49	2.86304
36.5	2.81764
36.51	2.82356
36.52	2.86764
36.53	2.85777
36.54	2.85942
36.55	2.8285
36.56	2.83277
36.57	2.85021
36.58	2.85514
36.59	2.8479
36.6	2.84692
36.61	2.82882
36.62	2.8456
36.63	2.8479
36.64	2.84922
36.65	2.84198
36.66	2.87619
36.67	2.82882
36.68	2.83409
36.69	2.82817
36.7	2.8308
36.71	2.81435
36.72	2.8285
36.73	2.81928
36.74	2.83606
36.75	2.82553
36.76	2.82192
36.77	2.8479
36.78	2.84626
36.79	2.85185
36.8	2.81896
36.81	2.841
36.82	2.84823
36.83	2.83606
36.84	2.81336
36.85	2.83869
36.86	2.82488
36.87	2.84527
36.88	2.81896
36.89	2.86468
36.9	2.85843
36.91	2.85975
36.92	2.83968
36.93	2.84001
36.94	2.81632
36.95	2.84264
36.96	2.84823
36.97	2.8558
36.98	2.86501
36.99	2.83244
37	2.8479
37.01	2.84494
37.02	2.85777
37.03	2.84067
37.04	2.8331
37.05	2.8456
37.06	2.84001
37.07	2.85284
37.08	2.8581
37.09	2.83442
37.1	2.82093
37.11	2.82619
37.12	2.84659
37.13	2.8433
37.14	2.82027
37.15	2.8433
37.16	2.86633
37.17	2.81271
37.18	2.84198
37.19	2.84659
37.2	2.84429
37.21	2.83935
37.22	2.82619
37.23	2.81994
37.24	2.84001
37.25	2.80909
37.26	2.83968
37.27	2.82784
37.28	2.8558
37.29	2.85679
37.3	2.841
37.31	2.82817
37.32	2.85382
37.33	2.87225
37.34	2.83803
37.35	2.82257
37.36	2.84988
37.37	2.8535
37.38	2.83573
37.39	2.8535
37.4	2.85284
37.41	2.83244
37.42	2.84429
37.43	2.85777
37.44	2.85152
37.45	2.85613
37.46	2.86468
37.47	2.83869
37.48	2.85711
37.49	2.82224
37.5	2.87751
37.51	2.82751
37.52	2.82093
37.53	2.88179
37.54	2.8729
37.55	2.87159
37.56	2.85679
37.57	2.866
37.58	2.8479
37.59	2.8308
37.6	2.84757
37.61	2.81731
37.62	2.84198
37.63	2.84757
37.64	2.85843
37.65	2.84692
37.66	2.82718
37.67	2.83573
37.68	2.81271
37.69	2.84264
37.7	2.84922
37.71	2.81731
37.72	2.78968
37.73	2.81863
37.74	2.8785
37.75	2.85744
37.76	2.81764
37.77	2.81567
37.78	2.83869
37.79	2.85185
37.8	2.85547
37.81	2.86073
37.82	2.85152
37.83	2.84461
37.84	2.83803
37.85	2.82257
37.86	2.82817
37.87	2.85185
37.88	2.85119
37.89	2.84231
37.9	2.86106
37.91	2.85711
37.92	2.83211
37.93	2.83738
37.94	2.83409
37.95	2.84067
37.96	2.86501
37.97	2.85218
37.98	2.85317
37.99	2.86961
38	2.8354
38.01	2.80777
38.02	2.81369
38.03	2.84231
38.04	2.8229
38.05	2.83573
38.06	2.81402
38.07	2.80481
38.08	2.8104
38.09	2.80876
38.1	2.82455
38.11	2.83771
38.12	2.82915
38.13	2.84034
38.14	2.84593
38.15	2.83376
38.16	2.85613
38.17	2.82356
38.18	2.83014
38.19	2.79988
38.2	2.83047
38.21	2.83277
38.22	2.85711
38.23	2.83442
38.24	2.84001
38.25	2.84494
38.26	2.81435
38.27	2.84034
38.28	2.85086
38.29	2.84264
38.3	2.83343
38.31	2.83047
38.32	2.82455
38.33	2.82455
38.34	2.81501
38.35	2.82817
38.36	2.86369
38.37	2.84429
38.38	2.82093
38.39	2.8058
38.4	2.7979
38.41	2.83113
38.42	2.84001
38.43	2.84757
38.44	2.86665
38.45	2.86304
38.46	2.85646
38.47	2.87915
38.48	2.8706
38.49	2.86764
38.5	2.85317
38.51	2.83869
38.52	2.8456
38.53	2.83047
38.54	2.84034
38.55	2.8479
38.56	2.83409
38.57	2.81534
38.58	2.82817
38.59	2.82488
38.6	2.80711
38.61	2.85086
38.62	2.84988
38.63	2.83869
38.64	2.83639
38.65	2.83606
38.66	2.85317
38.67	2.86863
38.68	2.84429
38.69	2.83014
38.7	2.8535
38.71	2.84363
38.72	2.84198
38.73	2.82652
38.74	2.83376
38.75	2.86402
38.76	2.85514
38.77	2.841
38.78	2.82422
38.79	2.84132
38.8	2.86304
38.81	2.8308
38.82	2.84757
38.83	2.83244
38.84	2.83475
38.85	2.83771
38.86	2.82224
38.87	2.82027
38.88	2.81797
38.89	2.8331
38.9	2.81139
38.91	2.88935
38.92	2.85448
38.93	2.82882
38.94	2.87356
38.95	2.86435
38.96	2.83507
38.97	2.80942
38.98	2.81238
38.99	2.83507
39	2.81665
39.01	2.83902
39.02	2.84363
39.03	2.80645
39.04	2.87027
39.05	2.84231
39.06	2.8206
39.07	2.83442
39.08	2.8706
39.09	2.82455
39.1	2.82488
39.11	2.8604
39.12	2.84494
39.13	2.8479
39.14	2.82619
39.15	2.83146
39.16	2.8104
39.17	2.8229
39.18	2.84034
39.19	2.85185
39.2	2.8581
39.21	2.85876
39.22	2.85317
39.23	2.83573
39.24	2.84593
39.25	2.87619
39.26	2.87718
39.27	2.84429
39.28	2.82356
39.29	2.83935
39.3	2.81665
39.31	2.84527
39.32	2.85218
39.33	2.84363
39.34	2.83968
39.35	2.84396
39.36	2.81632
39.37	2.81567
39.38	2.83738
39.39	2.86501
39.4	2.83507
39.41	2.84988
39.42	2.85547
39.43	2.82455
39.44	2.83146
39.45	2.87027
39.46	2.8331
39.47	2.81369
39.48	2.86929
39.49	2.83442
39.5	2.83869
39.51	2.83869
39.52	2.86008
39.53	2.86271
39.54	2.81797
39.55	2.85711
39.56	2.87093
39.57	2.83935
39.58	2.85382
39.59	2.83902
39.6	2.87258
39.61	2.85251
39.62	2.84692
39.63	2.87455
39.64	2.86139
39.65	2.85547
39.66	2.84067
39.67	2.85054
39.68	2.83935
39.69	2.84001
39.7	2.84034
39.71	2.81863
39.72	2.84198
39.73	2.86073
39.74	2.82126
39.75	2.80218
39.76	2.8706
39.77	2.86073
39.78	2.84494
39.79	2.85086
39.8	2.84198
39.81	2.79823
39.82	2.85646
39.83	2.85481
39.84	2.84264
39.85	2.82948
39.86	2.84001
39.87	2.84593
39.88	2.84692
39.89	2.88376
39.9	2.85744
39.91	2.8558
39.92	2.85152
39.93	2.84626
39.94	2.81238
39.95	2.83935
39.96	2.81599
39.97	2.81961
39.98	2.84692
39.99	2.81961
40	2.82159
40.01	2.87521
40.02	2.83672
40.03	2.82652
40.04	2.86534
40.05	2.841
40.06	2.85711
40.07	2.8285
40.08	2.83869
40.09	2.83146
40.1	2.84626
40.11	2.8535
40.12	2.83672
40.13	2.8479
40.14	2.87225
40.15	2.81698
40.16	2.8308
40.17	2.86961
40.18	2.86501
40.19	2.82488
40.2	2.85843
40.21	2.84659
40.22	2.82488
40.23	2.86106
40.24	2.83639
40.25	2.85284
40.26	2.8308
40.27	2.8535
40.28	2.83376
40.29	2.84757
40.3	2.84823
40.31	2.84757
40.32	2.84067
40.33	2.84001
40.34	2.8331
40.35	2.82751
40.36	2.84494
40.37	2.85481
40.38	2.84856
40.39	2.82422
40.4	2.85481
40.41	2.83507
40.42	2.85481
40.43	2.84856
40.44	2.85514
40.45	2.841
40.46	2.81567
40.47	2.84067
40.48	2.84165
40.49	2.87323
40.5	2.85679
40.51	2.83968
40.52	2.82685
40.53	2.85448
40.54	2.81369
40.55	2.83902
40.56	2.85415
40.57	2.86336
40.58	2.86073
40.59	2.8479
40.6	2.87389
40.61	2.82882
40.62	2.83014
40.63	2.85909
40.64	2.82521
40.65	2.841
40.66	2.82192
40.67	2.82553
40.68	2.84034
40.69	2.82027
40.7	2.81073
40.71	2.84165
40.72	2.82422
40.73	2.86073
40.74	2.866
40.75	2.85415
40.76	2.87619
40.77	2.85119
40.78	2.8479
40.79	2.84527
40.8	2.84429
40.81	2.87356
40.82	2.86665
40.83	2.82751
40.84	2.85942
40.85	2.86435
40.86	2.85251
40.87	2.82224
40.88	2.84198
40.89	2.84988
40.9	2.85054
40.91	2.83113
40.92	2.8535
40.93	2.83277
40.94	2.81567
40.95	2.81468
40.96	2.81896
40.97	2.83639
40.98	2.87685
40.99	2.83277
41	2.83606
41.01	2.86435
41.02	2.84396
41.03	2.82126
41.04	2.83409
41.05	2.8206
41.06	2.85152
41.07	2.8535
41.08	2.82521
41.09	2.82586
41.1	2.8433
41.11	2.85185
41.12	2.83738
41.13	2.82685
41.14	2.83113
41.15	2.81139
41.16	2.82586
41.17	2.83113
41.18	2.83869
41.19	2.85119
41.2	2.87323
41.21	2.82817
41.22	2.83672
41.23	2.82882
41.24	2.87488
41.25	2.87521
41.26	2.87718
41.27	2.89034
41.28	2.86665
41.29	2.83113
41.3	2.84297
41.31	2.83836
41.32	2.81336
41.33	2.84955
41.34	2.81106
41.35	2.85054
41.36	2.82093
41.37	2.85218
41.38	2.83409
41.39	2.82126
41.4	2.83343
41.41	2.85975
41.42	2.84034
41.43	2.84429
41.44	2.86435
41.45	2.82389
41.46	2.80251
41.47	2.81007
41.48	2.82817
41.49	2.81797
41.5	2.82751
41.51	2.84165
41.52	2.83409
41.53	2.85711
41.54	2.85646
41.55	2.83803
41.56	2.81961
41.57	2.86501
41.58	2.87751
41.59	2.82455
41.6	2.83507
41.61	2.84264
41.62	2.86896
41.63	2.8729
41.64	2.86271
41.65	2.84889
41.66	2.8058
41.67	2.85646
41.68	2.85218
41.69	2.86501
41.7	2.86665
41.71	2.84955
41.72	2.84922
41.73	2.84692
41.74	2.86698
41.75	2.83606
41.76	2.8456
41.77	2.87488
41.78	2.89889
41.79	2.83836
41.8	2.82685
41.81	2.82915
41.82	2.84363
41.83	2.83869
41.84	2.87948
41.85	2.85054
41.86	2.87192
41.87	2.84692
41.88	2.85284
41.89	2.84659
41.9	2.85251
41.91	2.84955
41.92	2.82586
41.93	2.84461
41.94	2.84823
41.95	2.80942
41.96	2.8558
41.97	2.84231
41.98	2.86106
41.99	2.86205
42	2.85711
42.01	2.89955
42.02	2.87718
42.03	2.85744
42.04	2.84231
42.05	2.84034
42.06	2.8183
42.07	2.85119
42.08	2.85514
42.09	2.86402
42.1	2.84823
42.11	2.85152
42.12	2.83573
42.13	2.81928
42.14	2.82586
42.15	2.8479
42.16	2.8479
42.17	2.84757
42.18	2.86567
42.19	2.84461
42.2	2.83672
42.21	2.83409
42.22	2.86172
42.23	2.85744
42.24	2.85744
42.25	2.84757
42.26	2.8558
42.27	2.82126
42.28	2.81303
42.29	2.86304
42.3	2.84198
42.31	2.8285
42.32	2.82718
42.33	2.85119
42.34	2.86369
42.35	2.86501
42.36	2.82652
42.37	2.82192
42.38	2.83244
42.39	2.83277
42.4	2.83442
42.41	2.81863
42.42	2.84264
42.43	2.87027
42.44	2.82257
42.45	2.82389
42.46	2.86863
42.47	2.84692
42.48	2.84231
42.49	2.84001
42.5	2.80843
42.51	2.8331
42.52	2.85547
42.53	2.88672
42.54	2.84626
42.55	2.8479
42.56	2.85876
42.57	2.8206
42.58	2.8229
42.59	2.80843
42.6	2.83639
42.61	2.8479
42.62	2.82948
42.63	2.84856
42.64	2.84527
42.65	2.86073
42.66	2.8183
42.67	2.85942
42.68	2.82981
42.69	2.81501
42.7	2.83836
42.71	2.83277
42.72	2.84725
42.73	2.85909
42.74	2.85777
42.75	2.85679
42.76	2.80876
42.77	2.83343
42.78	2.85086
42.79	2.85448
42.8	2.84856
42.81	2.85086
42.82	2.86106
42.83	2.82784
42.84	2.86929
42.85	2.85054
42.86	2.84494
42.87	2.8183
42.88	2.84593
42.89	2.86369
42.9	2.81567
42.91	2.80514
42.92	2.84132
42.93	2.85086
42.94	2.82159
42.95	2.82159
42.96	2.8183
42.97	2.8354
42.98	2.86139
42.99	2.84067
43	2.85218
43.01	2.82948
43.02	2.84955
43.03	2.84659
43.04	2.85218
43.05	2.83573
43.06	2.84461
43.07	2.81797
43.08	2.84198
43.09	2.84494
43.1	2.84955
43.11	2.86468
43.12	2.86106
43.13	2.84659
43.14	2.84955
43.15	2.85613
43.16	2.83738
43.17	2.82553
43.18	2.86172
43.19	2.82159
43.2	2.80876
43.21	2.84363
43.22	2.86238
43.23	2.83475
43.24	2.85448
43.25	2.8558
43.26	2.83047
43.27	2.82257
43.28	2.82751
43.29	2.83277
43.3	2.8558
43.31	2.81435
43.32	2.82323
43.33	2.82652
43.34	2.82817
43.35	2.81205
43.36	2.84593
43.37	2.841
43.38	2.82389
43.39	2.83409
43.4	2.82126
43.41	2.8354
43.42	2.83803
43.43	2.85481
43.44	2.82356
43.45	2.83244
43.46	2.86435
43.47	2.85777
43.48	2.85514
43.49	2.85086
43.5	2.83442
43.51	2.83573
43.52	2.79757
43.53	2.80942
43.54	2.84165
43.55	2.8183
43.56	2.85777
43.57	2.83409
43.58	2.86106
43.59	2.8354
43.6	2.87652
43.61	2.85119
43.62	2.81797
43.63	2.82751
43.64	2.8535
43.65	2.83803
43.66	2.86994
43.67	2.82915
43.68	2.82224
43.69	2.81501
43.7	2.82817
43.71	2.85613
43.72	2.86961
43.73	2.86008
43.74	2.84988
43.75	2.8183
43.76	2.83606
43.77	2.81435
43.78	2.81106
43.79	2.83113
43.8	2.80152
43.81	2.82619
43.82	2.84757
43.83	2.87126
43.84	2.86369
43.85	2.81007
43.86	2.81698
43.87	2.82948
43.88	2.84034
43.89	2.86139
43.9	2.81435
43.91	2.81797
43.92	2.82455
43.93	2.83573
43.94	2.88343
43.95	2.83409
43.96	2.82488
43.97	2.85909
43.98	2.8183
43.99	2.82257
44	2.83507
44.01	2.82817
44.02	2.79823
44.03	2.83113
44.04	2.84034
44.05	2.87356
44.06	2.82093
44.07	2.82422
44.08	2.85514
44.09	2.8729
44.1	2.84264
44.11	2.87027
44.12	2.81632
44.13	2.82586
44.14	2.84659
44.15	2.84527
44.16	2.81665
44.17	2.85876
44.18	2.82323
44.19	2.8433
44.2	2.84889
44.21	2.86172
44.22	2.85843
44.23	2.85317
44.24	2.82553
44.25	2.78935
44.26	2.83113
44.27	2.83935
44.28	2.82488
44.29	2.81928
44.3	2.8183
44.31	2.85185
44.32	2.87422
44.33	2.84067
44.34	2.8683
44.35	2.82488
44.36	2.84757
44.37	2.85876
44.38	2.83211
44.39	2.85481
44.4	2.84725
44.41	2.8308
44.42	2.80777
44.43	2.87652
44.44	2.841
44.45	2.84692
44.46	2.85415
44.47	2.83146
44.48	2.83277
44.49	2.85054
44.5	2.83606
44.51	2.82784
44.52	2.85317
44.53	2.87323
44.54	2.83902
44.55	2.84132
44.56	2.82488
44.57	2.85777
44.58	2.82718
44.59	2.84889
44.6	2.86369
44.61	2.84132
44.62	2.80349
44.63	2.78968
44.64	2.81764
44.65	2.84396
44.66	2.85284
44.67	2.83869
44.68	2.84955
44.69	2.83113
44.7	2.82718
44.71	2.86008
44.72	2.83705
44.73	2.82257
44.74	2.83705
44.75	2.84626
44.76	2.84461
44.77	2.84988
44.78	2.88738
44.79	2.81369
44.8	2.8229
44.81	2.8558
44.82	2.85679
44.83	2.85382
44.84	2.82093
44.85	2.88179
44.86	2.84429
44.87	2.8354
44.88	2.81928
44.89	2.84757
44.9	2.82586
44.91	2.82257
44.92	2.80382
44.93	2.8308
44.94	2.83606
44.95	2.86896
44.96	2.86106
44.97	2.86304
44.98	2.85646
44.99	2.84231
45	2.83672
45.01	2.82455
45.02	2.82126
45.03	2.84461
45.04	2.84429
45.05	2.84494
45.06	2.83014
45.07	2.84132
45.08	2.83573
45.09	2.82784
45.1	2.8535
45.11	2.83113
45.12	2.83014
45.13	2.84626
45.14	2.83507
45.15	2.8456
45.16	2.84659
45.17	2.8331
45.18	2.85415
45.19	2.85382
45.2	2.85251
45.21	2.83014
45.22	2.84034
45.23	2.85382
45.24	2.86139
45.25	2.87093
45.26	2.84725
45.27	2.82422
45.28	2.85218
45.29	2.85054
45.3	2.83376
45.31	2.86468
45.32	2.84626
45.33	2.82784
45.34	2.81632
45.35	2.82356
45.36	2.85251
45.37	2.82685
45.38	2.84757
45.39	2.87883
45.4	2.85876
45.41	2.85021
45.42	2.80876
45.43	2.87652
45.44	2.85613
45.45	2.86205
45.46	2.82224
45.47	2.8285
45.48	2.82224
45.49	2.85152
45.5	2.86698
45.51	2.86633
45.52	2.86633
45.53	2.86929
45.54	2.86633
45.55	2.81468
45.56	2.83803
45.57	2.84593
45.58	2.80876
45.59	2.80613
45.6	2.8581
45.61	2.82948
45.62	2.81961
45.63	2.85448
45.64	2.83573
45.65	2.8308
45.66	2.81567
45.67	2.84297
45.68	2.8479
45.69	2.83705
45.7	2.85843
45.71	2.84429
45.72	2.83047
45.73	2.85152
45.74	2.84626
45.75	2.8183
45.76	2.81632
45.77	2.85317
45.78	2.84297
45.79	2.82685
45.8	2.80678
45.81	2.82224
45.82	2.83968
45.83	2.83178
45.84	2.83869
45.85	2.85185
45.86	2.83803
45.87	2.8206
45.88	2.82027
45.89	2.80909
45.9	2.86139
45.91	2.8229
45.92	2.81599
45.93	2.86106
45.94	2.85514
45.95	2.82159
45.96	2.84922
45.97	2.82126
45.98	2.84396
45.99	2.841
46	2.84363
46.01	2.86567
46.02	2.86994
46.03	2.84067
46.04	2.82553
46.05	2.87751
46.06	2.8285
46.07	2.8081
46.08	2.8456
46.09	2.84988
46.1	2.84396
46.11	2.82323
46.12	2.82915
46.13	2.84067
46.14	2.86534
46.15	2.81764
46.16	2.85547
46.17	2.85251
46.18	2.8604
46.19	2.82685
46.2	2.83178
46.21	2.83277
46.22	2.81402
46.23	2.86271
46.24	2.83376
46.25	2.82652
46.26	2.85711
46.27	2.84856
46.28	2.83113
46.29	2.84363
46.3	2.8581
46.31	2.85218
46.32	2.81468
46.33	2.82915
46.34	2.82685
46.35	2.83244
46.36	2.83376
46.37	2.84396
46.38	2.84593
46.39	2.83047
46.4	2.81139
46.41	2.85218
46.42	2.86073
46.43	2.86863
46.44	2.84856
46.45	2.82817
46.46	2.81928
46.47	2.83672
46.48	2.81007
46.49	2.83869
46.5	2.82521
46.51	2.81435
46.52	2.81731
46.53	2.82192
46.54	2.84527
46.55	2.82422
46.56	2.86369
46.57	2.85086
46.58	2.84856
46.59	2.86369
46.6	2.8331
46.61	2.82784
46.62	2.83639
46.63	2.83573
46.64	2.85021
46.65	2.83935
46.66	2.83639
46.67	2.83639
46.68	2.85744
46.69	2.85021
46.7	2.82159
46.71	2.82948
46.72	2.83705
46.73	2.85613
46.74	2.81303
46.75	2.82455
46.76	2.81271
46.77	2.80974
46.78	2.81369
46.79	2.88837
46.8	2.86139
46.81	2.84988
46.82	2.83573
46.83	2.82323
46.84	2.83738
46.85	2.78968
46.86	2.79659
46.87	2.81238
46.88	2.82718
46.89	2.89725
46.9	2.86172
46.91	2.83771
46.92	2.83507
46.93	2.85086
46.94	2.82422
46.95	2.80744
46.96	2.82093
46.97	2.83343
46.98	2.83869
46.99	2.83146
47	2.81567
47.01	2.79034
47.02	2.80415
47.03	2.82389
47.04	2.8706
47.05	2.86073
47.06	2.83705
47.07	2.82455
47.08	2.83672
47.09	2.84626
47.1	2.85481
47.11	2.80942
47.12	2.86369
47.13	2.87159
47.14	2.81896
47.15	2.8058
47.16	2.80514
47.17	2.82356
47.18	2.85317
47.19	2.83672
47.2	2.81797
47.21	2.8206
47.22	2.83836
47.23	2.83869
47.24	2.85152
47.25	2.84165
47.26	2.82553
47.27	2.84363
47.28	2.83376
47.29	2.80119
47.3	2.81369
47.31	2.82159
47.32	2.83178
47.33	2.84461
47.34	2.82718
47.35	2.80218
47.36	2.80645
47.37	2.82817
47.38	2.83639
47.39	2.82126
47.4	2.84363
47.41	2.84429
47.42	2.84494
47.43	2.86435
47.44	2.81797
47.45	2.8229
47.46	2.82685
47.47	2.85086
47.48	2.85744
47.49	2.86402
47.5	2.86073
47.51	2.83442
47.52	2.80415
47.53	2.87389
47.54	2.85909
47.55	2.86073
47.56	2.80909
47.57	2.82422
47.58	2.81896
47.59	2.83507
47.6	2.82619
47.61	2.83507
47.62	2.84264
47.63	2.82126
47.64	2.82981
47.65	2.82455
47.66	2.83376
47.67	2.80349
47.68	2.85909
47.69	2.83146
47.7	2.87915
47.71	2.86172
47.72	2.84626
47.73	2.84659
47.74	2.85843
47.75	2.85646
47.76	2.83277
47.77	2.84955
47.78	2.82586
47.79	2.82126
47.8	2.85646
47.81	2.86567
47.82	2.83573
47.83	2.84922
47.84	2.85909
47.85	2.85119
47.86	2.82093
47.87	2.84231
47.88	2.82619
47.89	2.83376
47.9	2.81402
47.91	2.85152
47.92	2.82488
47.93	2.83376
47.94	2.85284
47.95	2.83442
47.96	2.88179
47.97	2.83475
47.98	2.86369
47.99	2.8683
48	2.8331
48.01	2.85646
48.02	2.85777
48.03	2.8558
48.04	2.81303
48.05	2.84494
48.06	2.86468
48.07	2.80448
48.08	2.84856
48.09	2.81435
48.1	2.82389
48.11	2.83738
48.12	2.84593
48.13	2.86961
48.14	2.84725
48.15	2.86271
48.16	2.82718
48.17	2.85284
48.18	2.8535
48.19	2.87455
48.2	2.8354
48.21	2.82817
48.22	2.85251
48.23	2.84955
48.24	2.82521
48.25	2.84922
48.26	2.82586
48.27	2.84626
48.28	2.8331
48.29	2.82126
48.3	2.82718
48.31	2.84626
48.32	2.83869
48.33	2.86139
48.34	2.83442
48.35	2.82159
48.36	2.81435
48.37	2.8229
48.38	2.84264
48.39	2.83738
48.4	2.84494
48.41	2.83277
48.42	2.85514
48.43	2.87587
48.44	2.87751
48.45	2.81402
48.46	2.83507
48.47	2.84067
48.48	2.81797
48.49	2.86665
48.5	2.84659
48.51	2.83376
48.52	2.8229
48.53	2.85119
48.54	2.86961
48.55	2.85119
48.56	2.86271
48.57	2.86304
48.58	2.82356
48.59	2.83803
48.6	2.83738
48.61	2.83277
48.62	2.82817
48.63	2.83014
48.64	2.86896
48.65	2.82521
48.66	2.83475
48.67	2.85909
48.68	2.83178
48.69	2.82685
48.7	2.84067
48.71	2.85152
48.72	2.81632
48.73	2.85251
48.74	2.8308
48.75	2.84001
48.76	2.87323
48.77	2.85086
48.78	2.85646
48.79	2.81468
48.8	2.84396
48.81	2.80086
48.82	2.84988
48.83	2.84757
48.84	2.82422
48.85	2.85317
48.86	2.84001
48.87	2.79856
48.88	2.82159
48.89	2.83047
48.9	2.83803
48.91	2.87356
48.92	2.85119
48.93	2.8479
48.94	2.84725
48.95	2.85843
48.96	2.80284
48.97	2.83014
48.98	2.83014
48.99	2.82948
49	2.85086
49.01	2.83047
49.02	2.83672
49.03	2.8285
49.04	2.83014
49.05	2.83573
49.06	2.81994
49.07	2.82652
49.08	2.84264
49.09	2.83639
49.1	2.83277
49.11	2.83639
49.12	2.82422
49.13	2.81764
49.14	2.82685
49.15	2.84461
49.16	2.8433
49.17	2.83968
49.18	2.80678
49.19	2.83146
49.2	2.81238
49.21	2.81369
49.22	2.85415
49.23	2.84001
49.24	2.84067
49.25	2.83442
49.26	2.82422
49.27	2.80974
49.28	2.83935
49.29	2.8558
49.3	2.83244
49.31	2.84461
49.32	2.85218
49.33	2.8479
49.34	2.82488
49.35	2.82159
49.36	2.83211
49.37	2.84132
49.38	2.84725
49.39	2.85613
49.4	2.8183
49.41	2.81731
49.42	2.84856
49.43	2.83047
49.44	2.81271
49.45	2.8104
49.46	2.79231
49.47	2.81303
49.48	2.81731
49.49	2.84494
49.5	2.84955
49.51	2.84527
49.52	2.84363
49.53	2.87521
49.54	2.80942
49.55	2.86402
49.56	2.83902
49.57	2.82981
49.58	2.83771
49.59	2.82093
49.6	2.83409
49.61	2.85679
49.62	2.86501
49.63	2.85284
49.64	2.82027
49.65	2.84396
49.66	2.83902
49.67	2.82389
49.68	2.84297
49.69	2.85251
49.7	2.80185
49.71	2.8308
49.72	2.8456
49.73	2.84856
49.74	2.81928
49.75	2.85876
49.76	2.8331
49.77	2.79626
49.78	2.81172
49.79	2.86863
49.8	2.83113
49.81	2.84264
49.82	2.841
49.83	2.84922
49.84	2.84165
49.85	2.83738
49.86	2.83146
49.87	2.80481
49.88	2.82882
49.89	2.8331
49.9	2.82751
49.91	2.7956
49.92	2.81928
49.93	2.82981
49.94	2.87225
49.95	2.86238
49.96	2.83869
49.97	2.82159
49.98	2.85152
49.99	2.82389
50	2.84429
