"BIO-KINE ASCII FILE"
"_COMMENT"	"MOS-500 Spectrometer"
"_COMMENT"	"Kinetics measurement"
"_COMMENT"	"Y Unit : Volt,  X Unit : s"
"_COMMENT"	"Excitation wavelength : 380 nm"
"_COMMENT"	"Fentes bandwidth =  1 nm"
"_COMMENT"	"HV= 1000V"
"_COMMENT"	"Timebase  1 =  .01 s   5001 pts"
"_SFM"	"SFM-400 /S  Advanced mode"
"_SFM"	"Ratio : S1: 2.5, S2: 0, S3: 0, S4: 1"
"_SFM"	"Content : S1: , S2: , S3: , S4:"
"_SFM"	"Concentration : S1: , S2: , S3: , S4:"
"_SFM"	"Total volume : 209 µl  Flow : 3.5 mL/s"
"_SFM"	"Acquisition start :  10 ms before stop"
"_SFM"	"cuve=FC-15, s1=10 ml , s2=10 ml , s3=10 ml , s4=1.9 ml"
"_UNITX"	"s"
"_UNITY"	"Volt"
"_DELTAX"	0
"_DATA"
1e-300	2.69658
0.01	2.665
0.02	2.63869
0.03	2.6479
0.04	2.65513
0.05	2.69066
0.06	2.71073
0.07	2.73672
0.08	2.76797
0.09	2.7581
0.1	2.76205
0.11	2.77882
0.12	2.78211
0.13	2.81139
0.14	2.78507
0.15	2.8058
0.16	2.79461
0.17	2.79264
0.18	2.80119
0.19	2.82685
0.2	2.79823
0.21	2.80448
0.22	2.8104
0.23	2.80777
0.24	2.80974
0.25	2.81731
0.26	2.83869
0.27	2.84264
0.28	2.80317
0.29	2.82224
0.3	2.83277
0.31	2.81369
0.32	2.80251
0.33	2.82027
0.34	2.83869
0.35	2.83277
0.36	2.82652
0.37	2.80744
0.38	2.80547
0.39	2.82027
0.4	2.81172
0.41	2.82093
0.42	2.85086
0.43	2.81665
0.44	2.80777
0.45	2.8183
0.46	2.84264
0.47	2.77948
0.48	2.80678
0.49	2.81172
0.5	2.83211
0.51	2.8331
0.52	2.80251
0.53	2.82356
0.54	2.83738
0.55	2.81698
0.56	2.80777
0.57	2.82685
0.58	2.81896
0.59	2.82882
0.6	2.80678
0.61	2.79626
0.62	2.8058
0.63	2.80547
0.64	2.81106
0.65	2.82948
0.66	2.83836
0.67	2.80876
0.68	2.85646
0.69	2.81435
0.7	2.80843
0.71	2.81106
0.72	2.8229
0.73	2.81896
0.74	2.83409
0.75	2.81238
0.76	2.83014
0.77	2.83277
0.78	2.8229
0.79	2.83935
0.8	2.79461
0.81	2.81994
0.82	2.81764
0.83	2.8285
0.84	2.83968
0.85	2.83442
0.86	2.79823
0.87	2.79428
0.88	2.8002
0.89	2.8433
0.9	2.84527
0.91	2.83376
0.92	2.79461
0.93	2.82455
0.94	2.83014
0.95	2.81797
0.96	2.8081
0.97	2.83277
0.98	2.85415
0.99	2.8104
1	2.82389
1.01	2.81106
1.02	2.83771
1.03	2.81599
1.04	2.8081
1.05	2.76895
1.06	2.77224
1.07	2.7877
1.08	2.82948
1.09	2.81271
1.1	2.7956
1.11	2.80909
1.12	2.84363
1.13	2.82981
1.14	2.8331
1.15	2.7877
1.16	2.8206
1.17	2.7933
1.18	2.79724
1.19	2.7752
1.2	2.79034
1.21	2.79889
1.22	2.8104
1.23	2.80053
1.24	2.78836
1.25	2.77422
1.26	2.79593
1.27	2.81994
1.28	2.82224
1.29	2.82027
1.3	2.82422
1.31	2.78672
1.32	2.80086
1.33	2.78047
1.34	2.81961
1.35	2.83014
1.36	2.80514
1.37	2.80744
1.38	2.81271
1.39	2.84461
1.4	2.81369
1.41	2.79856
1.42	2.81896
1.43	2.80086
1.44	2.83606
1.45	2.77586
1.46	2.80284
1.47	2.8081
1.48	2.8058
1.49	2.77685
1.5	2.77389
1.51	2.77356
1.52	2.79001
1.53	2.77981
1.54	2.76895
1.55	2.76468
1.56	2.79724
1.57	2.8058
1.58	2.79165
1.59	2.81172
1.6	2.79395
1.61	2.79626
1.62	2.82422
1.63	2.81731
1.64	2.8058
1.65	2.77191
1.66	2.79001
1.67	2.76402
1.68	2.77224
1.69	2.77323
1.7	2.80152
1.71	2.79988
1.72	2.78803
1.73	2.79988
1.74	2.79922
1.75	2.79132
1.76	2.78803
1.77	2.79165
1.78	2.79099
1.79	2.79099
1.8	2.78968
1.81	2.77586
1.82	2.75349
1.83	2.81797
1.84	2.81731
1.85	2.7729
1.86	2.78441
1.87	2.81271
1.88	2.80448
1.89	2.82126
1.9	2.79955
1.91	2.80547
1.92	2.78705
1.93	2.81402
1.94	2.7877
1.95	2.78639
1.96	2.79001
1.97	2.7502
1.98	2.79264
1.99	2.7933
2	2.79231
2.01	2.77882
2.02	2.77126
2.03	2.79034
2.04	2.80744
2.05	2.80744
2.06	2.7956
2.07	2.78836
2.08	2.79231
2.09	2.80678
2.1	2.77093
2.11	2.79132
2.12	2.77422
2.13	2.7706
2.14	2.78738
2.15	2.79165
2.16	2.8104
2.17	2.83935
2.18	2.79692
2.19	2.79823
2.2	2.78836
2.21	2.78902
2.22	2.77619
2.23	2.75415
2.24	2.80218
2.25	2.81205
2.26	2.77784
2.27	2.78639
2.28	2.78803
2.29	2.80185
2.3	2.83343
2.31	2.78738
2.32	2.76797
2.33	2.79099
2.34	2.79988
2.35	2.79724
2.36	2.77948
2.37	2.8058
2.38	2.75876
2.39	2.76172
2.4	2.77718
2.41	2.77882
2.42	2.75251
2.43	2.77389
2.44	2.77422
2.45	2.76599
2.46	2.76895
2.47	2.80053
2.48	2.7831
2.49	2.78836
2.5	2.81303
2.51	2.78902
2.52	2.79099
2.53	2.76534
2.54	2.74922
2.55	2.75514
2.56	2.78014
2.57	2.77356
2.58	2.73803
2.59	2.75777
2.6	2.78869
2.61	2.79922
2.62	2.82389
2.63	2.77619
2.64	2.79001
2.65	2.78968
2.66	2.80415
2.67	2.77553
2.68	2.77487
2.69	2.76237
2.7	2.79066
2.71	2.80317
2.72	2.80711
2.73	2.78803
2.74	2.7683
2.75	2.79692
2.76	2.77356
2.77	2.78014
2.78	2.80284
2.79	2.76073
2.8	2.76468
2.81	2.78244
2.82	2.77487
2.83	2.77915
2.84	2.7706
2.85	2.79132
2.86	2.78014
2.87	2.7831
2.88	2.78738
2.89	2.79626
2.9	2.75645
2.91	2.78672
2.92	2.7502
2.93	2.76106
2.94	2.76402
2.95	2.77685
2.96	2.77685
2.97	2.77685
2.98	2.77882
2.99	2.78474
3	2.76501
3.01	2.79001
3.02	2.78113
3.03	2.77882
3.04	2.77849
3.05	2.80251
3.06	2.8002
3.07	2.79692
3.08	2.77586
3.09	2.7729
3.1	2.7683
3.11	2.76961
3.12	2.75876
3.13	2.75514
3.14	2.76237
3.15	2.7581
3.16	2.76501
3.17	2.75218
3.18	2.77652
3.19	2.77816
3.2	2.7831
3.21	2.78441
3.22	2.76665
3.23	2.75908
3.24	2.77027
3.25	2.78507
3.26	2.78409
3.27	2.80547
3.28	2.77487
3.29	2.74757
3.3	2.75974
3.31	2.76632
3.32	2.77718
3.33	2.7683
3.34	2.77422
3.35	2.75514
3.36	2.78014
3.37	2.74987
3.38	2.75481
3.39	2.78935
3.4	2.76665
3.41	2.74658
3.42	2.76303
3.43	2.79856
3.44	2.75612
3.45	2.7979
3.46	2.78178
3.47	2.79034
3.48	2.75843
3.49	2.7706
3.5	2.7854
3.51	2.76994
3.52	2.78738
3.53	2.76336
3.54	2.76698
3.55	2.78244
3.56	2.74099
3.57	2.81271
3.58	2.76435
3.59	2.75448
3.6	2.75711
3.61	2.78409
3.62	2.76994
3.63	2.73573
3.64	2.75086
3.65	2.76994
3.66	2.77816
3.67	2.76073
3.68	2.74264
3.69	2.73014
3.7	2.75283
3.71	2.76895
3.72	2.74527
3.73	2.75908
3.74	2.78738
3.75	2.76468
3.76	2.75843
3.77	2.74264
3.78	2.74691
3.79	2.7502
3.8	2.74757
3.81	2.73737
3.82	2.75448
3.83	2.75316
3.84	2.77784
3.85	2.77422
3.86	2.7502
3.87	2.7502
3.88	2.74001
3.89	2.77224
3.9	2.76862
3.91	2.7354
3.92	2.75316
3.93	2.76961
3.94	2.74297
3.95	2.76205
3.96	2.7831
3.97	2.75645
3.98	2.75251
3.99	2.75251
4	2.75415
4.01	2.71961
4.02	2.74955
4.03	2.75645
4.04	2.7604
4.05	2.72849
4.06	2.72454
4.07	2.75547
4.08	2.75744
4.09	2.76435
4.1	2.7752
4.11	2.79297
4.12	2.79724
4.13	2.77553
4.14	2.76797
4.15	2.73737
4.16	2.73178
4.17	2.73079
4.18	2.75547
4.19	2.74461
4.2	2.75744
4.21	2.77948
4.22	2.74922
4.23	2.75382
4.24	2.75251
4.25	2.77915
4.26	2.76994
4.27	2.76007
4.28	2.77389
4.29	2.76797
4.3	2.75481
4.31	2.78869
4.32	2.7502
4.33	2.7456
4.34	2.75908
4.35	2.73836
4.36	2.7877
4.37	2.77751
4.38	2.75514
4.39	2.73408
4.4	2.76961
4.41	2.78277
4.42	2.75974
4.43	2.74724
4.44	2.77816
4.45	2.75876
4.46	2.77915
4.47	2.75777
4.48	2.75876
4.49	2.73902
4.5	2.74889
4.51	2.75251
4.52	2.71797
4.53	2.75876
4.54	2.7683
4.55	2.74329
4.56	2.74527
4.57	2.76205
4.58	2.74691
4.59	2.77422
4.6	2.81402
4.61	2.77455
4.62	2.74593
4.63	2.79461
4.64	2.7808
4.65	2.74428
4.66	2.74099
4.67	2.77027
4.68	2.75777
4.69	2.76468
4.7	2.77455
4.71	2.7502
4.72	2.73211
4.73	2.77126
4.74	2.78606
4.75	2.74889
4.76	2.75218
4.77	2.73902
4.78	2.76172
4.79	2.7604
4.8	2.75283
4.81	2.76764
4.82	2.77126
4.83	2.77849
4.84	2.77224
4.85	2.75251
4.86	2.75908
4.87	2.77191
4.88	2.7683
4.89	2.76501
4.9	2.79066
4.91	2.7581
4.92	2.76435
4.93	2.73935
4.94	2.76303
4.95	2.75514
4.96	2.75053
4.97	2.76468
4.98	2.74658
4.99	2.74395
5	2.76928
5.01	2.73606
5.02	2.76764
5.03	2.74593
5.04	2.72882
5.05	2.7456
5.06	2.74494
5.07	2.79363
5.08	2.75547
5.09	2.71862
5.1	2.75316
5.11	2.7377
5.12	2.77126
5.13	2.76237
5.14	2.78277
5.15	2.76336
5.16	2.7933
5.17	2.74626
5.18	2.76205
5.19	2.76928
5.2	2.73968
5.21	2.75941
5.22	2.75843
5.23	2.78145
5.24	2.76665
5.25	2.76862
5.26	2.74724
5.27	2.715
5.28	2.7479
5.29	2.77191
5.3	2.73507
5.31	2.75514
5.32	2.75547
5.33	2.73902
5.34	2.74132
5.35	2.74889
5.36	2.74626
5.37	2.74658
5.38	2.76402
5.39	2.76106
5.4	2.73737
5.41	2.72356
5.42	2.73672
5.43	2.74658
5.44	2.75612
5.45	2.74165
5.46	2.75678
5.47	2.76106
5.48	2.78705
5.49	2.74395
5.5	2.74165
5.51	2.78836
5.52	2.75974
5.53	2.7581
5.54	2.73968
5.55	2.77191
5.56	2.80843
5.57	2.78113
5.58	2.77323
5.59	2.74626
5.6	2.71731
5.61	2.75744
5.62	2.76106
5.63	2.76961
5.64	2.74297
5.65	2.76336
5.66	2.7604
5.67	2.74231
5.68	2.78474
5.69	2.74593
5.7	2.74001
5.71	2.75185
5.72	2.74231
5.73	2.77751
5.74	2.75119
5.75	2.74823
5.76	2.75974
5.77	2.76764
5.78	2.76632
5.79	2.7752
5.8	2.73573
5.81	2.73639
5.82	2.76566
5.83	2.76172
5.84	2.79034
5.85	2.75645
5.86	2.73047
5.87	2.76139
5.88	2.75152
5.89	2.75612
5.9	2.74955
5.91	2.76369
5.92	2.75941
5.93	2.74329
5.94	2.78376
5.95	2.77652
5.96	2.75678
5.97	2.75777
5.98	2.7581
5.99	2.77685
6	2.75481
6.01	2.76731
6.02	2.74165
6.03	2.73474
6.04	2.74461
6.05	2.74527
6.06	2.7479
6.07	2.76797
6.08	2.74987
6.09	2.74658
6.1	2.78244
6.11	2.75251
6.12	2.76237
6.13	2.75316
6.14	2.72718
6.15	2.75053
6.16	2.77553
6.17	2.75382
6.18	2.76237
6.19	2.75645
6.2	2.75415
6.21	2.75777
6.22	2.78343
6.23	2.73803
6.24	2.73244
6.25	2.75152
6.26	2.73079
6.27	2.75547
6.28	2.75645
6.29	2.74165
6.3	2.76566
6.31	2.74329
6.32	2.74823
6.33	2.74395
6.34	2.74889
6.35	2.76632
6.36	2.74264
6.37	2.73376
6.38	2.75876
6.39	2.7331
6.4	2.73803
6.41	2.73737
6.42	2.74757
6.43	2.72586
6.44	2.74724
6.45	2.71566
6.46	2.73343
6.47	2.72816
6.48	2.74494
6.49	2.71928
6.5	2.71007
6.51	2.71829
6.52	2.73178
6.53	2.77126
6.54	2.73211
6.55	2.72487
6.56	2.73672
6.57	2.75119
6.58	2.70744
6.59	2.73079
6.6	2.73573
6.61	2.73968
6.62	2.75185
6.63	2.74066
6.64	2.73408
6.65	2.74757
6.66	2.74428
6.67	2.75119
6.68	2.71665
6.69	2.72191
6.7	2.7627
6.71	2.73704
6.72	2.73474
6.73	2.78113
6.74	2.75349
6.75	2.73869
6.76	2.74527
6.77	2.7331
6.78	2.73408
6.79	2.75612
6.8	2.7456
6.81	2.74494
6.82	2.74297
6.83	2.74362
6.84	2.75941
6.85	2.71862
6.86	2.72553
6.87	2.7252
6.88	2.75053
6.89	2.74987
6.9	2.74099
6.91	2.72619
6.92	2.73737
6.93	2.74395
6.94	2.74132
6.95	2.72718
6.96	2.75744
6.97	2.7456
6.98	2.73047
6.99	2.73014
7	2.74362
7.01	2.74856
7.02	2.7127
7.03	2.72882
7.04	2.7127
7.05	2.75218
7.06	2.74987
7.07	2.74889
7.08	2.71665
7.09	2.73244
7.1	2.72191
7.11	2.71665
7.12	2.72816
7.13	2.7229
7.14	2.75876
7.15	2.72882
7.16	2.71632
7.17	2.73803
7.18	2.75053
7.19	2.72027
7.2	2.77356
7.21	2.76139
7.22	2.74461
7.23	2.72685
7.24	2.7479
7.25	2.74001
7.26	2.74626
7.27	2.74593
7.28	2.75843
7.29	2.74823
7.3	2.71698
7.31	2.71731
7.32	2.7127
7.33	2.76402
7.34	2.73079
7.35	2.70481
7.36	2.73606
7.37	2.74132
7.38	2.75843
7.39	2.74724
7.4	2.70941
7.41	2.74264
7.42	2.71731
7.43	2.73244
7.44	2.74626
7.45	2.7331
7.46	2.68803
7.47	2.7275
7.48	2.72685
7.49	2.72586
7.5	2.71106
7.51	2.70744
7.52	2.73573
7.53	2.75612
7.54	2.74428
7.55	2.74297
7.56	2.71632
7.57	2.77356
7.58	2.74494
7.59	2.74066
7.6	2.72224
7.61	2.72553
7.62	2.73014
7.63	2.72553
7.64	2.74494
7.65	2.73672
7.66	2.72849
7.67	2.68408
7.68	2.7502
7.69	2.75119
7.7	2.76073
7.71	2.72718
7.72	2.72553
7.73	2.71599
7.74	2.72027
7.75	2.73014
7.76	2.7456
7.77	2.71599
7.78	2.72356
7.79	2.73869
7.8	2.74955
7.81	2.74231
7.82	2.74099
7.83	2.72224
7.84	2.73639
7.85	2.74593
7.86	2.74461
7.87	2.74494
7.88	2.75481
7.89	2.72553
7.9	2.70382
7.91	2.70941
7.92	2.71994
7.93	2.7479
7.94	2.73836
7.95	2.71698
7.96	2.73639
7.97	2.73047
7.98	2.73376
7.99	2.75152
8	2.72718
8.01	2.73376
8.02	2.71073
8.03	2.72125
8.04	2.78244
8.05	2.74823
8.06	2.72783
8.07	2.73441
8.08	2.72553
8.09	2.75612
8.1	2.73935
8.11	2.71369
8.12	2.71435
8.13	2.73145
8.14	2.72981
8.15	2.74001
8.16	2.72125
8.17	2.70316
8.18	2.70349
8.19	2.71632
8.2	2.76632
8.21	2.76402
8.22	2.7479
8.23	2.74593
8.24	2.74494
8.25	2.73672
8.26	2.75678
8.27	2.75547
8.28	2.75119
8.29	2.73145
8.3	2.71829
8.31	2.72619
8.32	2.76369
8.33	2.72915
8.34	2.72981
8.35	2.72718
8.36	2.73211
8.37	2.74231
8.38	2.74987
8.39	2.73836
8.4	2.72422
8.41	2.73606
8.42	2.74626
8.43	2.73672
8.44	2.70053
8.45	2.73639
8.46	2.72685
8.47	2.74066
8.48	2.71797
8.49	2.70316
8.5	2.71303
8.51	2.73507
8.52	2.73178
8.53	2.73408
8.54	2.72882
8.55	2.72356
8.56	2.72948
8.57	2.68935
8.58	2.74165
8.59	2.76468
8.6	2.7354
8.61	2.72158
8.62	2.72454
8.63	2.74395
8.64	2.73573
8.65	2.70612
8.66	2.71698
8.67	2.72816
8.68	2.71895
8.69	2.7331
8.7	2.70579
8.71	2.69921
8.72	2.71073
8.73	2.70185
8.74	2.70974
8.75	2.72948
8.76	2.72487
8.77	2.74033
8.78	2.77619
8.79	2.7229
8.8	2.7275
8.81	2.71731
8.82	2.72553
8.83	2.74856
8.84	2.73343
8.85	2.71435
8.86	2.72718
8.87	2.73803
8.88	2.74165
8.89	2.70777
8.9	2.76106
8.91	2.74428
8.92	2.7229
8.93	2.7081
8.94	2.68967
8.95	2.72191
8.96	2.72586
8.97	2.73507
8.98	2.7331
8.99	2.75777
9	2.70514
9.01	2.73869
9.02	2.74527
9.03	2.7354
9.04	2.73573
9.05	2.70843
9.06	2.74066
9.07	2.75185
9.08	2.74001
9.09	2.73112
9.1	2.70974
9.11	2.74165
9.12	2.74132
9.13	2.70974
9.14	2.74856
9.15	2.74527
9.16	2.71007
9.17	2.71731
9.18	2.73869
9.19	2.74264
9.2	2.71566
9.21	2.6979
9.22	2.71204
9.23	2.74428
9.24	2.75086
9.25	2.73507
9.26	2.74955
9.27	2.72981
9.28	2.71731
9.29	2.73408
9.3	2.73606
9.31	2.7229
9.32	2.74593
9.33	2.71204
9.34	2.70349
9.35	2.72093
9.36	2.70218
9.37	2.71698
9.38	2.71599
9.39	2.74889
9.4	2.73935
9.41	2.72849
9.42	2.7377
9.43	2.74264
9.44	2.74593
9.45	2.70875
9.46	2.7081
9.47	2.71336
9.48	2.71829
9.49	2.7252
9.5	2.74297
9.51	2.73639
9.52	2.7252
9.53	2.7002
9.54	2.69395
9.55	2.74329
9.56	2.75777
9.57	2.77027
9.58	2.76862
9.59	2.73869
9.6	2.75415
9.61	2.71665
9.62	2.73211
9.63	2.72454
9.64	2.7479
9.65	2.73079
9.66	2.72685
9.67	2.73343
9.68	2.74823
9.69	2.71632
9.7	2.73803
9.71	2.72389
9.72	2.73968
9.73	2.74264
9.74	2.73639
9.75	2.71928
9.76	2.71139
9.77	2.74987
9.78	2.69757
9.79	2.71731
9.8	2.71435
9.81	2.71303
9.82	2.72027
9.83	2.73836
9.84	2.74658
9.85	2.72356
9.86	2.70283
9.87	2.70415
9.88	2.71862
9.89	2.71139
9.9	2.73244
9.91	2.73145
9.92	2.71895
9.93	2.70546
9.94	2.69198
9.95	2.71928
9.96	2.7127
9.97	2.71928
9.98	2.70974
9.99	2.70152
10	2.74461
10.01	2.78507
10.02	2.73902
10.03	2.71994
10.04	2.73211
10.05	2.74297
10.06	2.70119
10.07	2.71106
10.08	2.71961
10.09	2.7229
10.1	2.70283
10.11	2.69066
10.12	2.70119
10.13	2.75152
10.14	2.71961
10.15	2.70645
10.16	2.71731
10.17	2.73178
10.18	2.71797
10.19	2.75547
10.2	2.70908
10.21	2.72849
10.22	2.72553
10.23	2.72487
10.24	2.70711
10.25	2.70218
10.26	2.74132
10.27	2.72454
10.28	2.71665
10.29	2.72257
10.3	2.7354
10.31	2.72093
10.32	2.67553
10.33	2.75053
10.34	2.73573
10.35	2.73704
10.36	2.71862
10.37	2.72685
10.38	2.7331
10.39	2.74724
10.4	2.73343
10.41	2.76534
10.42	2.73211
10.43	2.75316
10.44	2.69954
10.45	2.72816
10.46	2.73737
10.47	2.71632
10.48	2.73277
10.49	2.73145
10.5	2.71632
10.51	2.70481
10.52	2.7104
10.53	2.72158
10.54	2.70185
10.55	2.69527
10.56	2.69
10.57	2.69592
10.58	2.71599
10.59	2.7127
10.6	2.7104
10.61	2.71566
10.62	2.71961
10.63	2.70218
10.64	2.71073
10.65	2.71402
10.66	2.75152
10.67	2.71698
10.68	2.72619
10.69	2.72158
10.7	2.70546
10.71	2.72718
10.72	2.70579
10.73	2.73902
10.74	2.71797
10.75	2.73112
10.76	2.71862
10.77	2.71862
10.78	2.72224
10.79	2.73606
10.8	2.73902
10.81	2.70908
10.82	2.69527
10.83	2.73968
10.84	2.74428
10.85	2.71862
10.86	2.71731
10.87	2.75876
10.88	2.73047
10.89	2.71829
10.9	2.71435
10.91	2.70843
10.92	2.73672
10.93	2.75744
10.94	2.72454
10.95	2.71731
10.96	2.7354
10.97	2.68408
10.98	2.73408
10.99	2.73014
11	2.70875
11.01	2.72356
11.02	2.72454
11.03	2.70843
11.04	2.70908
11.05	2.72882
11.06	2.7377
11.07	2.71961
11.08	2.71599
11.09	2.73408
11.1	2.72454
11.11	2.69757
11.12	2.7127
11.13	2.71665
11.14	2.74395
11.15	2.70415
11.16	2.66665
11.17	2.68671
11.18	2.68046
11.19	2.74395
11.2	2.70843
11.21	2.71994
11.22	2.75415
11.23	2.73737
11.24	2.72553
11.25	2.71698
11.26	2.72454
11.27	2.71402
11.28	2.73376
11.29	2.74626
11.3	2.71007
11.31	2.73178
11.32	2.73968
11.33	2.70316
11.34	2.73902
11.35	2.71698
11.36	2.7002
11.37	2.71139
11.38	2.71829
11.39	2.71106
11.4	2.74329
11.41	2.70941
11.42	2.72158
11.43	2.72586
11.44	2.71829
11.45	2.73277
11.46	2.6956
11.47	2.71007
11.48	2.75744
11.49	2.72257
11.5	2.70843
11.51	2.70645
11.52	2.6979
11.53	2.70514
11.54	2.71994
11.55	2.72652
11.56	2.71566
11.57	2.70678
11.58	2.71204
11.59	2.70612
11.6	2.70908
11.61	2.66862
11.62	2.68606
11.63	2.70908
11.64	2.73277
11.65	2.73507
11.66	2.71533
11.67	2.70514
11.68	2.72619
11.69	2.69823
11.7	2.71369
11.71	2.70415
11.72	2.7104
11.73	2.71336
11.74	2.71764
11.75	2.70678
11.76	2.72125
11.77	2.72454
11.78	2.70579
11.79	2.69362
11.8	2.70941
11.81	2.72652
11.82	2.72816
11.83	2.72816
11.84	2.67487
11.85	2.69132
11.86	2.74132
11.87	2.69494
11.88	2.70415
11.89	2.73178
11.9	2.72619
11.91	2.74658
11.92	2.69395
11.93	2.71468
11.94	2.70448
11.95	2.71468
11.96	2.69395
11.97	2.69757
11.98	2.67388
11.99	2.71829
12	2.69
12.01	2.66336
12.02	2.6979
12.03	2.73408
12.04	2.71665
12.05	2.71895
12.06	2.71764
12.07	2.70744
12.08	2.72027
12.09	2.72685
12.1	2.69625
12.11	2.67981
12.12	2.72586
12.13	2.69527
12.14	2.70579
12.15	2.70908
12.16	2.70514
12.17	2.70283
12.18	2.71862
12.19	2.72191
12.2	2.7025
12.21	2.73112
12.22	2.7275
12.23	2.70086
12.24	2.68869
12.25	2.72553
12.26	2.73606
12.27	2.73145
12.28	2.72125
12.29	2.72389
12.3	2.70481
12.31	2.72981
12.32	2.71829
12.33	2.72487
12.34	2.71731
12.35	2.70777
12.36	2.72882
12.37	2.69757
12.38	2.71369
12.39	2.72257
12.4	2.72487
12.41	2.71566
12.42	2.71632
12.43	2.71895
12.44	2.72158
12.45	2.70612
12.46	2.68967
12.47	2.69066
12.48	2.70448
12.49	2.73672
12.5	2.7229
12.51	2.70053
12.52	2.72619
12.53	2.71829
12.54	2.72783
12.55	2.71435
12.56	2.73244
12.57	2.7331
12.58	2.71698
12.59	2.69724
12.6	2.71073
12.61	2.69099
12.62	2.68967
12.63	2.7377
12.64	2.69461
12.65	2.7025
12.66	2.72487
12.67	2.73079
12.68	2.72882
12.69	2.72027
12.7	2.70053
12.71	2.68408
12.72	2.70514
12.73	2.71698
12.74	2.70382
12.75	2.7331
12.76	2.72356
12.77	2.71961
12.78	2.715
12.79	2.70053
12.8	2.68408
12.81	2.68013
12.82	2.68737
12.83	2.72422
12.84	2.71862
12.85	2.70514
12.86	2.7025
12.87	2.70875
12.88	2.71237
12.89	2.7127
12.9	2.69132
12.91	2.72981
12.92	2.69231
12.93	2.71435
12.94	2.73047
12.95	2.70349
12.96	2.70711
12.97	2.7252
12.98	2.71994
12.99	2.71599
13	2.69527
13.01	2.71204
13.02	2.67421
13.03	2.67619
13.04	2.69889
13.05	2.68935
13.06	2.6979
13.07	2.70612
13.08	2.71797
13.09	2.72093
13.1	2.71994
13.11	2.7081
13.12	2.66566
13.13	2.7229
13.14	2.70546
13.15	2.69132
13.16	2.70777
13.17	2.70546
13.18	2.70941
13.19	2.72356
13.2	2.72125
13.21	2.72652
13.22	2.72652
13.23	2.71106
13.24	2.7331
13.25	2.72093
13.26	2.72849
13.27	2.71862
13.28	2.74593
13.29	2.73968
13.3	2.73902
13.31	2.71632
13.32	2.73573
13.33	2.71237
13.34	2.68869
13.35	2.70908
13.36	2.70481
13.37	2.70645
13.38	2.72718
13.39	2.71731
13.4	2.70283
13.41	2.69132
13.42	2.69954
13.43	2.72652
13.44	2.70382
13.45	2.74297
13.46	2.71468
13.47	2.73902
13.48	2.71632
13.49	2.69329
13.5	2.72882
13.51	2.76172
13.52	2.74198
13.53	2.72323
13.54	2.6956
13.55	2.71895
13.56	2.69592
13.57	2.69395
13.58	2.71402
13.59	2.68244
13.6	2.70875
13.61	2.72356
13.62	2.72586
13.63	2.69165
13.64	2.71468
13.65	2.70185
13.66	2.71007
13.67	2.68178
13.68	2.67717
13.69	2.71007
13.7	2.71599
13.71	2.71533
13.72	2.71435
13.73	2.69428
13.74	2.73211
13.75	2.73343
13.76	2.71204
13.77	2.72619
13.78	2.72093
13.79	2.6831
13.8	2.68573
13.81	2.68671
13.82	2.71106
13.83	2.72783
13.84	2.70711
13.85	2.7104
13.86	2.66763
13.87	2.67816
13.88	2.69264
13.89	2.72323
13.9	2.71961
13.91	2.7127
13.92	2.71204
13.93	2.70086
13.94	2.71139
13.95	2.72487
13.96	2.74132
13.97	2.70843
13.98	2.70908
13.99	2.73343
14	2.71599
14.01	2.69066
14.02	2.72849
14.03	2.7104
14.04	2.72257
14.05	2.72191
14.06	2.71862
14.07	2.72356
14.08	2.70119
14.09	2.69921
14.1	2.70316
14.11	2.71468
14.12	2.70316
14.13	2.68606
14.14	2.73474
14.15	2.72619
14.16	2.70152
14.17	2.71961
14.18	2.70908
14.19	2.70875
14.2	2.72027
14.21	2.6979
14.22	2.71862
14.23	2.72586
14.24	2.74033
14.25	2.7206
14.26	2.72356
14.27	2.72849
14.28	2.68244
14.29	2.71698
14.3	2.7127
14.31	2.70086
14.32	2.72093
14.33	2.715
14.34	2.70744
14.35	2.73343
14.36	2.71632
14.37	2.71073
14.38	2.69296
14.39	2.7025
14.4	2.70481
14.41	2.71599
14.42	2.68606
14.43	2.72158
14.44	2.72389
14.45	2.71139
14.46	2.71895
14.47	2.68935
14.48	2.68474
14.49	2.68408
14.5	2.70579
14.51	2.71204
14.52	2.73178
14.53	2.71731
14.54	2.71895
14.55	2.75415
14.56	2.71829
14.57	2.70612
14.58	2.74001
14.59	2.69264
14.6	2.69099
14.61	2.71468
14.62	2.70777
14.63	2.67553
14.64	2.68573
14.65	2.70777
14.66	2.68408
14.67	2.69856
14.68	2.69264
14.69	2.69757
14.7	2.67553
14.71	2.65908
14.72	2.71533
14.73	2.72553
14.74	2.71468
14.75	2.70941
14.76	2.71599
14.77	2.69099
14.78	2.7025
14.79	2.72389
14.8	2.70546
14.81	2.70086
14.82	2.69231
14.83	2.70283
14.84	2.70152
14.85	2.68507
14.86	2.70843
14.87	2.71204
14.88	2.72027
14.89	2.73244
14.9	2.7252
14.91	2.70908
14.92	2.72224
14.93	2.69165
14.94	2.67882
14.95	2.68573
14.96	2.66369
14.97	2.70448
14.98	2.67092
14.99	2.6979
15	2.68474
15.01	2.69658
15.02	2.70119
15.03	2.71171
15.04	2.67882
15.05	2.6877
15.06	2.69165
15.07	2.70119
15.08	2.69231
15.09	2.68573
15.1	2.71204
15.11	2.71171
15.12	2.70283
15.13	2.71073
15.14	2.69987
15.15	2.67487
15.16	2.71237
15.17	2.72685
15.18	2.70283
15.19	2.67685
15.2	2.68211
15.21	2.73244
15.22	2.70711
15.23	2.71237
15.24	2.69395
15.25	2.71171
15.26	2.69691
15.27	2.69823
15.28	2.7127
15.29	2.71698
15.3	2.71862
15.31	2.70514
15.32	2.71468
15.33	2.71829
15.34	2.70546
15.35	2.7127
15.36	2.72882
15.37	2.7502
15.38	2.7025
15.39	2.70152
15.4	2.74099
15.41	2.72323
15.42	2.69132
15.43	2.70218
15.44	2.68046
15.45	2.69329
15.46	2.69954
15.47	2.70744
15.48	2.70185
15.49	2.73244
15.5	2.72389
15.51	2.72849
15.52	2.72191
15.53	2.7104
15.54	2.71862
15.55	2.69329
15.56	2.70546
15.57	2.71336
15.58	2.69132
15.59	2.70349
15.6	2.73079
15.61	2.72553
15.62	2.69329
15.63	2.71237
15.64	2.70612
15.65	2.7229
15.66	2.74165
15.67	2.72224
15.68	2.72487
15.69	2.70546
15.7	2.70415
15.71	2.68606
15.72	2.70185
15.73	2.7206
15.74	2.71895
15.75	2.72685
15.76	2.72915
15.77	2.72323
15.78	2.72356
15.79	2.67685
15.8	2.69033
15.81	2.68375
15.82	2.69066
15.83	2.70711
15.84	2.69395
15.85	2.70283
15.86	2.71797
15.87	2.69691
15.88	2.69724
15.89	2.69889
15.9	2.68013
15.91	2.70711
15.92	2.68211
15.93	2.7025
15.94	2.70777
15.95	2.75711
15.96	2.71106
15.97	2.69691
15.98	2.69099
15.99	2.66369
16	2.67553
16.01	2.69625
16.02	2.7229
16.03	2.68902
16.04	2.6775
16.05	2.71204
16.06	2.70316
16.07	2.71303
16.08	2.69757
16.09	2.6831
16.1	2.67027
16.11	2.69428
16.12	2.7252
16.13	2.70579
16.14	2.6831
16.15	2.68244
16.16	2.69691
16.17	2.69362
16.18	2.72816
16.19	2.71599
16.2	2.68803
16.21	2.68145
16.22	2.69757
16.23	2.71731
16.24	2.70481
16.25	2.70481
16.26	2.70843
16.27	2.69625
16.28	2.71468
16.29	2.70645
16.3	2.71435
16.31	2.72356
16.32	2.69132
16.33	2.7127
16.34	2.70283
16.35	2.6729
16.36	2.6956
16.37	2.70152
16.38	2.67849
16.39	2.70514
16.4	2.69461
16.41	2.72158
16.42	2.69987
16.43	2.71073
16.44	2.69428
16.45	2.70119
16.46	2.71073
16.47	2.73047
16.48	2.73935
16.49	2.71961
16.5	2.67981
16.51	2.67717
16.52	2.68869
16.53	2.67224
16.54	2.71402
16.55	2.69329
16.56	2.67849
16.57	2.69823
16.58	2.73178
16.59	2.69494
16.6	2.68046
16.61	2.70514
16.62	2.71303
16.63	2.69987
16.64	2.68342
16.65	2.71139
16.66	2.72356
16.67	2.70546
16.68	2.68046
16.69	2.66303
16.7	2.69856
16.71	2.67981
16.72	2.6877
16.73	2.70448
16.74	2.72027
16.75	2.72915
16.76	2.69494
16.77	2.69724
16.78	2.7252
16.79	2.67027
16.8	2.68375
16.81	2.69329
16.82	2.69329
16.83	2.70481
16.84	2.68277
16.85	2.69
16.86	2.69033
16.87	2.74955
16.88	2.70843
16.89	2.69395
16.9	2.6979
16.91	2.68474
16.92	2.71402
16.93	2.66961
16.94	2.68474
16.95	2.73145
16.96	2.7206
16.97	2.71961
16.98	2.7127
16.99	2.68671
17	2.69954
17.01	2.68836
17.02	2.68112
17.03	2.69592
17.04	2.7025
17.05	2.72816
17.06	2.70283
17.07	2.73507
17.08	2.72191
17.09	2.6979
17.1	2.70349
17.11	2.72849
17.12	2.73079
17.13	2.72224
17.14	2.68836
17.15	2.7002
17.16	2.70645
17.17	2.69921
17.18	2.71961
17.19	2.70119
17.2	2.69066
17.21	2.6854
17.22	2.70218
17.23	2.67816
17.24	2.70612
17.25	2.66007
17.26	2.70612
17.27	2.70777
17.28	2.69987
17.29	2.68408
17.3	2.7104
17.31	2.69856
17.32	2.71303
17.33	2.70744
17.34	2.70448
17.35	2.71007
17.36	2.67783
17.37	2.69921
17.38	2.71073
17.39	2.67356
17.4	2.68474
17.41	2.71139
17.42	2.67849
17.43	2.7002
17.44	2.69592
17.45	2.67454
17.46	2.72487
17.47	2.66007
17.48	2.67191
17.49	2.7275
17.5	2.73277
17.51	2.69954
17.52	2.69231
17.53	2.68244
17.54	2.69856
17.55	2.70514
17.56	2.69395
17.57	2.69691
17.58	2.73376
17.59	2.68737
17.6	2.70152
17.61	2.66698
17.62	2.68013
17.63	2.69461
17.64	2.66796
17.65	2.69264
17.66	2.69395
17.67	2.67027
17.68	2.7229
17.69	2.66566
17.7	2.67421
17.71	2.69132
17.72	2.68869
17.73	2.68244
17.74	2.72619
17.75	2.71139
17.76	2.69362
17.77	2.71961
17.78	2.70316
17.79	2.70612
17.8	2.69033
17.81	2.69625
17.82	2.70283
17.83	2.73343
17.84	2.74593
17.85	2.71171
17.86	2.72619
17.87	2.71106
17.88	2.71369
17.89	2.68836
17.9	2.69296
17.91	2.71961
17.92	2.72389
17.93	2.72948
17.94	2.7275
17.95	2.70053
17.96	2.68639
17.97	2.68277
17.98	2.67356
17.99	2.70875
18	2.69823
18.01	2.71007
18.02	2.69856
18.03	2.70415
18.04	2.71797
18.05	2.71171
18.06	2.67882
18.07	2.70744
18.08	2.69625
18.09	2.70349
18.1	2.69625
18.11	2.71665
18.12	2.72849
18.13	2.69362
18.14	2.70316
18.15	2.70546
18.16	2.71862
18.17	2.69165
18.18	2.70645
18.19	2.72652
18.2	2.65678
18.21	2.69
18.22	2.70777
18.23	2.71007
18.24	2.68145
18.25	2.70086
18.26	2.68639
18.27	2.66829
18.28	2.70777
18.29	2.71632
18.3	2.71007
18.31	2.70415
18.32	2.69856
18.33	2.69856
18.34	2.68935
18.35	2.69461
18.36	2.69625
18.37	2.65908
18.38	2.65809
18.39	2.69461
18.4	2.70382
18.41	2.66796
18.42	2.66237
18.43	2.68935
18.44	2.69395
18.45	2.69461
18.46	2.70119
18.47	2.71435
18.48	2.73639
18.49	2.75678
18.5	2.68573
18.51	2.71632
18.52	2.67783
18.53	2.66632
18.54	2.68145
18.55	2.68606
18.56	2.7275
18.57	2.69395
18.58	2.69033
18.59	2.66862
18.6	2.70218
18.61	2.71073
18.62	2.70185
18.63	2.70283
18.64	2.70514
18.65	2.69033
18.66	2.72586
18.67	2.70941
18.68	2.65448
18.69	2.65678
18.7	2.69691
18.71	2.69395
18.72	2.69296
18.73	2.69921
18.74	2.69494
18.75	2.72915
18.76	2.72158
18.77	2.71566
18.78	2.69099
18.79	2.6706
18.8	2.71336
18.81	2.68079
18.82	2.70349
18.83	2.70218
18.84	2.67454
18.85	2.68704
18.86	2.69296
18.87	2.71204
18.88	2.68639
18.89	2.68408
18.9	2.71336
18.91	2.69296
18.92	2.68013
18.93	2.71007
18.94	2.69987
18.95	2.70349
18.96	2.69592
18.97	2.69691
18.98	2.69691
18.99	2.70448
19	2.7025
19.01	2.6956
19.02	2.665
19.03	2.66237
19.04	2.67915
19.05	2.70185
19.06	2.6877
19.07	2.69527
19.08	2.67981
19.09	2.6877
19.1	2.67224
19.11	2.69461
19.12	2.69921
19.13	2.67981
19.14	2.73047
19.15	2.75547
19.16	2.70053
19.17	2.72487
19.18	2.67619
19.19	2.71336
19.2	2.72915
19.21	2.70678
19.22	2.71731
19.23	2.6956
19.24	2.6752
19.25	2.67421
19.26	2.70579
19.27	2.71336
19.28	2.70579
19.29	2.67948
19.3	2.69
19.31	2.69132
19.32	2.6877
19.33	2.66138
19.34	2.69264
19.35	2.69231
19.36	2.69625
19.37	2.69625
19.38	2.67717
19.39	2.69099
19.4	2.72882
19.41	2.6752
19.42	2.715
19.43	2.68704
19.44	2.69823
19.45	2.68803
19.46	2.70875
19.47	2.69724
19.48	2.67421
19.49	2.69362
19.5	2.70843
19.51	2.69856
19.52	2.69033
19.53	2.69724
19.54	2.7275
19.55	2.69625
19.56	2.70053
19.57	2.68671
19.58	2.69
19.59	2.71139
19.6	2.69132
19.61	2.70514
19.62	2.69395
19.63	2.71665
19.64	2.70711
19.65	2.69889
19.66	2.67224
19.67	2.67948
19.68	2.71468
19.69	2.70908
19.7	2.70908
19.71	2.67158
19.72	2.6831
19.73	2.71435
19.74	2.70448
19.75	2.67882
19.76	2.68573
19.77	2.69823
19.78	2.68704
19.79	2.68935
19.8	2.70875
19.81	2.68408
19.82	2.69132
19.83	2.70349
19.84	2.68935
19.85	2.6877
19.86	2.69823
19.87	2.7229
19.88	2.68408
19.89	2.67586
19.9	2.70152
19.91	2.67915
19.92	2.70086
19.93	2.6979
19.94	2.69395
19.95	2.71764
19.96	2.69494
19.97	2.67388
19.98	2.67027
19.99	2.66467
20	2.66994
20.01	2.66731
20.02	2.70546
20.03	2.69625
20.04	2.69494
20.05	2.72553
20.06	2.73112
20.07	2.68507
20.08	2.70086
20.09	2.71139
20.1	2.71862
20.11	2.69165
20.12	2.65612
20.13	2.6752
20.14	2.69296
20.15	2.70316
20.16	2.72158
20.17	2.66796
20.18	2.67652
20.19	2.71698
20.2	2.72685
20.21	2.72652
20.22	2.68046
20.23	2.67882
20.24	2.69658
20.25	2.68704
20.26	2.66698
20.27	2.69099
20.28	2.70612
20.29	2.69066
20.3	2.68606
20.31	2.72619
20.32	2.71961
20.33	2.68704
20.34	2.68935
20.35	2.68046
20.36	2.68737
20.37	2.65546
20.38	2.69691
20.39	2.68375
20.4	2.67257
20.41	2.68178
20.42	2.70316
20.43	2.69592
20.44	2.70152
20.45	2.70908
20.46	2.70612
20.47	2.6854
20.48	2.7002
20.49	2.69889
20.5	2.69658
20.51	2.72586
20.52	2.70579
20.53	2.67685
20.54	2.72125
20.55	2.69132
20.56	2.66369
20.57	2.67685
20.58	2.68046
20.59	2.71106
20.6	2.70415
20.61	2.7002
20.62	2.69066
20.63	2.68013
20.64	2.66698
20.65	2.7025
20.66	2.74955
20.67	2.70283
20.68	2.69066
20.69	2.67816
20.7	2.70974
20.71	2.68474
20.72	2.70415
20.73	2.72783
20.74	2.67948
20.75	2.71369
20.76	2.71895
20.77	2.66369
20.78	2.69527
20.79	2.69823
20.8	2.67619
20.81	2.68441
20.82	2.67816
20.83	2.69658
20.84	2.66106
20.85	2.68474
20.86	2.69625
20.87	2.70053
20.88	2.68737
20.89	2.68606
20.9	2.68737
20.91	2.67454
20.92	2.68573
20.93	2.67092
20.94	2.67553
20.95	2.67421
20.96	2.67158
20.97	2.70349
20.98	2.67092
20.99	2.65513
21	2.69987
21.01	2.6877
21.02	2.6979
21.03	2.70316
21.04	2.68902
21.05	2.68342
21.06	2.69395
21.07	2.69987
21.08	2.69691
21.09	2.68112
21.1	2.69329
21.11	2.70086
21.12	2.69921
21.13	2.71961
21.14	2.69099
21.15	2.66829
21.16	2.66467
21.17	2.65974
21.18	2.66106
21.19	2.7127
21.2	2.69724
21.21	2.70382
21.22	2.71566
21.23	2.71073
21.24	2.6979
21.25	2.71237
21.26	2.67849
21.27	2.70908
21.28	2.70843
21.29	2.70612
21.3	2.70908
21.31	2.68671
21.32	2.68507
21.33	2.71435
21.34	2.66434
21.35	2.66632
21.36	2.69889
21.37	2.67388
21.38	2.69921
21.39	2.71139
21.4	2.69165
21.41	2.66895
21.42	2.66434
21.43	2.64724
21.44	2.68342
21.45	2.71566
21.46	2.65382
21.47	2.6877
21.48	2.67257
21.49	2.68902
21.5	2.71665
21.51	2.69856
21.52	2.71007
21.53	2.6854
21.54	2.72685
21.55	2.70974
21.56	2.68803
21.57	2.69987
21.58	2.71895
21.59	2.71303
21.6	2.68277
21.61	2.69658
21.62	2.67553
21.63	2.70152
21.64	2.71468
21.65	2.69724
21.66	2.69757
21.67	2.68408
21.68	2.68112
21.69	2.70612
21.7	2.71764
21.71	2.69724
21.72	2.69625
21.73	2.6854
21.74	2.6831
21.75	2.69658
21.76	2.69461
21.77	2.68178
21.78	2.6831
21.79	2.68935
21.8	2.68704
21.81	2.66895
21.82	2.67915
21.83	2.68737
21.84	2.6706
21.85	2.66928
21.86	2.68869
21.87	2.69198
21.88	2.67783
21.89	2.68178
21.9	2.6752
21.91	2.66698
21.92	2.66928
21.93	2.66533
21.94	2.69494
21.95	2.70086
21.96	2.68902
21.97	2.68902
21.98	2.72093
21.99	2.71829
22	2.66698
22.01	2.6854
22.02	2.66731
22.03	2.68211
22.04	2.71007
22.05	2.68244
22.06	2.69625
22.07	2.69362
22.08	2.70283
22.09	2.70514
22.1	2.68606
22.11	2.68342
22.12	2.67915
22.13	2.65941
22.14	2.71073
22.15	2.69856
22.16	2.69296
22.17	2.70349
22.18	2.71665
22.19	2.68606
22.2	2.68013
22.21	2.67882
22.22	2.69329
22.23	2.7229
22.24	2.71665
22.25	2.65842
22.26	2.65974
22.27	2.70612
22.28	2.69856
22.29	2.69461
22.3	2.68408
22.31	2.68507
22.32	2.69461
22.33	2.68046
22.34	2.69296
22.35	2.66698
22.36	2.68704
22.37	2.66961
22.38	2.6729
22.39	2.67027
22.4	2.65349
22.41	2.70448
22.42	2.69132
22.43	2.67948
22.44	2.69757
22.45	2.68639
22.46	2.68474
22.47	2.67586
22.48	2.70185
22.49	2.68441
22.5	2.69264
22.51	2.70119
22.52	2.67915
22.53	2.70185
22.54	2.69856
22.55	2.69
22.56	2.70645
22.57	2.71961
22.58	2.68474
22.59	2.6775
22.6	2.70415
22.61	2.6979
22.62	2.71829
22.63	2.6877
22.64	2.69494
22.65	2.66665
22.66	2.67553
22.67	2.67816
22.68	2.6854
22.69	2.68803
22.7	2.69724
22.71	2.67816
22.72	2.70119
22.73	2.715
22.74	2.70119
22.75	2.68408
22.76	2.70283
22.77	2.66961
22.78	2.6956
22.79	2.68737
22.8	2.66073
22.81	2.68474
22.82	2.68639
22.83	2.67125
22.84	2.69527
22.85	2.70612
22.86	2.67685
22.87	2.68704
22.88	2.66796
22.89	2.64757
22.9	2.64362
22.91	2.67388
22.92	2.69033
22.93	2.70053
22.94	2.69264
22.95	2.68967
22.96	2.68967
22.97	2.69395
22.98	2.65842
22.99	2.69132
23	2.68211
23.01	2.6877
23.02	2.67948
23.03	2.67125
23.04	2.70612
23.05	2.69329
23.06	2.70086
23.07	2.69987
23.08	2.73145
23.09	2.71402
23.1	2.69592
23.11	2.70316
23.12	2.70415
23.13	2.67027
23.14	2.69362
23.15	2.69461
23.16	2.69165
23.17	2.68244
23.18	2.69527
23.19	2.70316
23.2	2.7002
23.21	2.69066
23.22	2.70218
23.23	2.69033
23.24	2.68803
23.25	2.69264
23.26	2.70481
23.27	2.67619
23.28	2.67092
23.29	2.71073
23.3	2.66434
23.31	2.65908
23.32	2.70185
23.33	2.68178
23.34	2.665
23.35	2.6831
23.36	2.68573
23.37	2.66731
23.38	2.68244
23.39	2.71204
23.4	2.68441
23.41	2.69461
23.42	2.71994
23.43	2.68935
23.44	2.68803
23.45	2.66336
23.46	2.69033
23.47	2.68244
23.48	2.71797
23.49	2.70875
23.5	2.6729
23.51	2.69625
23.52	2.68869
23.53	2.68869
23.54	2.67948
23.55	2.69494
23.56	2.69
23.57	2.69329
23.58	2.72125
23.59	2.69296
23.6	2.71139
23.61	2.70678
23.62	2.6706
23.63	2.67816
23.64	2.6604
23.65	2.68573
23.66	2.69
23.67	2.69889
23.68	2.73244
23.69	2.71171
23.7	2.67619
23.71	2.70053
23.72	2.70711
23.73	2.69132
23.74	2.68704
23.75	2.69592
23.76	2.69658
23.77	2.69
23.78	2.71106
23.79	2.70974
23.8	2.65119
23.81	2.66665
23.82	2.69395
23.83	2.67553
23.84	2.67257
23.85	2.65645
23.86	2.68474
23.87	2.68244
23.88	2.67783
23.89	2.69198
23.9	2.70941
23.91	2.71961
23.92	2.71303
23.93	2.67915
23.94	2.70218
23.95	2.69066
23.96	2.67685
23.97	2.7229
23.98	2.69264
23.99	2.67849
24	2.67191
24.01	2.65678
24.02	2.68836
24.03	2.67553
24.04	2.68046
24.05	2.69921
24.06	2.69165
24.07	2.69461
24.08	2.69658
24.09	2.69198
24.1	2.68046
24.11	2.66698
24.12	2.68902
24.13	2.68375
24.14	2.68277
24.15	2.68375
24.16	2.69066
24.17	2.68145
24.18	2.66961
24.19	2.68639
24.2	2.69165
24.21	2.68836
24.22	2.71336
24.23	2.69165
24.24	2.67257
24.25	2.70086
24.26	2.72849
24.27	2.68178
24.28	2.71665
24.29	2.67421
24.3	2.68639
24.31	2.7479
24.32	2.69362
24.33	2.70875
24.34	2.67586
24.35	2.68474
24.36	2.66632
24.37	2.66204
24.38	2.70119
24.39	2.67685
24.4	2.67125
24.41	2.68869
24.42	2.67158
24.43	2.71435
24.44	2.68211
24.45	2.71369
24.46	2.67224
24.47	2.69592
24.48	2.66467
24.49	2.6831
24.5	2.69527
24.51	2.65941
24.52	2.66994
24.53	2.70185
24.54	2.69494
24.55	2.67388
24.56	2.69889
24.57	2.69823
24.58	2.66763
24.59	2.69231
24.6	2.69
24.61	2.69033
24.62	2.69592
24.63	2.70974
24.64	2.67027
24.65	2.64888
24.66	2.73211
24.67	2.72224
24.68	2.68869
24.69	2.68112
24.7	2.65382
24.71	2.66599
24.72	2.66665
24.73	2.69428
24.74	2.69033
24.75	2.68869
24.76	2.68869
24.77	2.64658
24.78	2.69889
24.79	2.68046
24.8	2.67257
24.81	2.68342
24.82	2.67158
24.83	2.69198
24.84	2.65711
24.85	2.68013
24.86	2.68474
24.87	2.71731
24.88	2.69856
24.89	2.72389
24.9	2.7127
24.91	2.69132
24.92	2.67125
24.93	2.69823
24.94	2.71237
24.95	2.6729
24.96	2.70283
24.97	2.65645
24.98	2.69461
24.99	2.69889
25	2.6775
25.01	2.63276
25.02	2.64724
25.03	2.6775
25.04	2.6854
25.05	2.71073
25.06	2.68967
25.07	2.70777
25.08	2.6854
25.09	2.66895
25.1	2.69165
25.11	2.66928
25.12	2.68474
25.13	2.66928
25.14	2.65941
25.15	2.69461
25.16	2.67323
25.17	2.66533
25.18	2.66106
25.19	2.69329
25.2	2.70185
25.21	2.68606
25.22	2.69691
25.23	2.6877
25.24	2.68375
25.25	2.6956
25.26	2.70481
25.27	2.6729
25.28	2.67981
25.29	2.67027
25.3	2.71435
25.31	2.73507
25.32	2.6956
25.33	2.69889
25.34	2.68935
25.35	2.70218
25.36	2.65448
25.37	2.65349
25.38	2.68079
25.39	2.68079
25.4	2.6854
25.41	2.70481
25.42	2.68671
25.43	2.66862
25.44	2.7002
25.45	2.69954
25.46	2.69592
25.47	2.68507
25.48	2.65842
25.49	2.7002
25.5	2.67421
25.51	2.66829
25.52	2.69198
25.53	2.67454
25.54	2.66237
25.55	2.67224
25.56	2.71665
25.57	2.69592
25.58	2.71139
25.59	2.71106
25.6	2.70119
25.61	2.69033
25.62	2.67685
25.63	2.66138
25.64	2.69329
25.65	2.67158
25.66	2.68507
25.67	2.67224
25.68	2.65678
25.69	2.69691
25.7	2.71369
25.71	2.66796
25.72	2.65842
25.73	2.66369
25.74	2.67158
25.75	2.70349
25.76	2.71698
25.77	2.70777
25.78	2.67323
25.79	2.69165
25.8	2.67027
25.81	2.66961
25.82	2.70119
25.83	2.66665
25.84	2.68441
25.85	2.67191
25.86	2.67586
25.87	2.69724
25.88	2.68639
25.89	2.66895
25.9	2.67257
25.91	2.69856
25.92	2.69132
25.93	2.67652
25.94	2.69625
25.95	2.70448
25.96	2.72882
25.97	2.70974
25.98	2.68935
25.99	2.67619
26	2.66994
26.01	2.68967
26.02	2.70481
26.03	2.70316
26.04	2.70546
26.05	2.69724
26.06	2.69625
26.07	2.67717
26.08	2.66566
26.09	2.70941
26.1	2.67257
26.11	2.66895
26.12	2.67454
26.13	2.6706
26.14	2.70119
26.15	2.68967
26.16	2.65415
26.17	2.6627
26.18	2.67849
26.19	2.67553
26.2	2.67948
26.21	2.66665
26.22	2.6775
26.23	2.66599
26.24	2.66665
26.25	2.68573
26.26	2.67717
26.27	2.66533
26.28	2.70283
26.29	2.69592
26.3	2.69921
26.31	2.66369
26.32	2.65513
26.33	2.69954
26.34	2.69395
26.35	2.67948
26.36	2.69461
26.37	2.69329
26.38	2.6956
26.39	2.70415
26.4	2.6854
26.41	2.70316
26.42	2.70152
26.43	2.66237
26.44	2.67257
26.45	2.70349
26.46	2.67849
26.47	2.69461
26.48	2.66402
26.49	2.69099
26.5	2.69921
26.51	2.6956
26.52	2.69921
26.53	2.67981
26.54	2.70744
26.55	2.68277
26.56	2.66994
26.57	2.70152
26.58	2.69757
26.59	2.65711
26.6	2.67915
26.61	2.67849
26.62	2.66862
26.63	2.72323
26.64	2.69724
26.65	2.68606
26.66	2.68013
26.67	2.68869
26.68	2.67915
26.69	2.67158
26.7	2.6775
26.71	2.66599
26.72	2.69691
26.73	2.67981
26.74	2.65481
26.75	2.67652
26.76	2.64987
26.77	2.66665
26.78	2.67981
26.79	2.69461
26.8	2.7081
26.81	2.69954
26.82	2.72125
26.83	2.66467
26.84	2.66073
26.85	2.69165
26.86	2.69954
26.87	2.68375
26.88	2.70349
26.89	2.67619
26.9	2.70875
26.91	2.69362
26.92	2.66106
26.93	2.64855
26.94	2.63441
26.95	2.67323
26.96	2.69527
26.97	2.66796
26.98	2.69625
26.99	2.68046
27	2.66402
27.01	2.65908
27.02	2.66763
27.03	2.67685
27.04	2.69921
27.05	2.68441
27.06	2.69132
27.07	2.6729
27.08	2.66829
27.09	2.6604
27.1	2.69099
27.11	2.68737
27.12	2.70382
27.13	2.71402
27.14	2.69823
27.15	2.65809
27.16	2.67882
27.17	2.68573
27.18	2.69921
27.19	2.66467
27.2	2.69527
27.21	2.70382
27.22	2.67356
27.23	2.67816
27.24	2.65283
27.25	2.65612
27.26	2.69658
27.27	2.69823
27.28	2.68606
27.29	2.67652
27.3	2.67224
27.31	2.68639
27.32	2.70283
27.33	2.66402
27.34	2.66106
27.35	2.66829
27.36	2.68573
27.37	2.68277
27.38	2.69889
27.39	2.70283
27.4	2.70843
27.41	2.69132
27.42	2.67981
27.43	2.68112
27.44	2.70382
27.45	2.67487
27.46	2.68639
27.47	2.66369
27.48	2.69428
27.49	2.65974
27.5	2.67816
27.51	2.68935
27.52	2.71731
27.53	2.67816
27.54	2.6854
27.55	2.68145
27.56	2.66303
27.57	2.66467
27.58	2.68737
27.59	2.68342
27.6	2.69264
27.61	2.67224
27.62	2.68408
27.63	2.67882
27.64	2.69033
27.65	2.67816
27.66	2.69395
27.67	2.68836
27.68	2.69264
27.69	2.65645
27.7	2.65349
27.71	2.71171
27.72	2.69362
27.73	2.64987
27.74	2.69823
27.75	2.68441
27.76	2.6729
27.77	2.6775
27.78	2.67816
27.79	2.69461
27.8	2.69395
27.81	2.65974
27.82	2.65645
27.83	2.67717
27.84	2.67783
27.85	2.65217
27.86	2.69691
27.87	2.70974
27.88	2.6831
27.89	2.6729
27.9	2.66303
27.91	2.6627
27.92	2.70218
27.93	2.68869
27.94	2.68079
27.95	2.6956
27.96	2.68869
27.97	2.65941
27.98	2.67553
27.99	2.67224
28	2.67685
28.01	2.67816
28.02	2.70086
28.03	2.69527
28.04	2.68145
28.05	2.67454
28.06	2.68803
28.07	2.72158
28.08	2.69592
28.09	2.70349
28.1	2.6627
28.11	2.70777
28.12	2.70974
28.13	2.67717
28.14	2.67948
28.15	2.67158
28.16	2.7104
28.17	2.67685
28.18	2.6729
28.19	2.71566
28.2	2.68902
28.21	2.66402
28.22	2.70678
28.23	2.69033
28.24	2.67948
28.25	2.69494
28.26	2.70579
28.27	2.71336
28.28	2.70448
28.29	2.72125
28.3	2.70612
28.31	2.66632
28.32	2.66434
28.33	2.67454
28.34	2.67948
28.35	2.70974
28.36	2.70481
28.37	2.70744
28.38	2.7002
28.39	2.68803
28.4	2.68178
28.41	2.67224
28.42	2.65217
28.43	2.66434
28.44	2.66829
28.45	2.68178
28.46	2.67685
28.47	2.69395
28.48	2.68178
28.49	2.69592
28.5	2.67816
28.51	2.63605
28.52	2.67981
28.53	2.68408
28.54	2.6706
28.55	2.67816
28.56	2.6877
28.57	2.68507
28.58	2.67421
28.59	2.6752
28.6	2.68671
28.61	2.69592
28.62	2.67553
28.63	2.67487
28.64	2.70218
28.65	2.68046
28.66	2.67027
28.67	2.70711
28.68	2.68737
28.69	2.71797
28.7	2.69823
28.71	2.67356
28.72	2.70086
28.73	2.67224
28.74	2.68145
28.75	2.68573
28.76	2.70316
28.77	2.65546
28.78	2.6706
28.79	2.65645
28.8	2.64559
28.81	2.66961
28.82	2.68967
28.83	2.66467
28.84	2.68803
28.85	2.6775
28.86	2.67685
28.87	2.69395
28.88	2.69264
28.89	2.67454
28.9	2.69033
28.91	2.68967
28.92	2.69
28.93	2.69033
28.94	2.68967
28.95	2.69362
28.96	2.7025
28.97	2.69
28.98	2.66533
28.99	2.67356
29	2.68869
29.01	2.69
29.02	2.68507
29.03	2.69658
29.04	2.69329
29.05	2.67125
29.06	2.68277
29.07	2.6956
29.08	2.69231
29.09	2.71303
29.1	2.68342
29.11	2.69329
29.12	2.65678
29.13	2.67224
29.14	2.69494
29.15	2.67717
29.16	2.66171
29.17	2.69198
29.18	2.69724
29.19	2.67783
29.2	2.66434
29.21	2.67717
29.22	2.67586
29.23	2.6775
29.24	2.68474
29.25	2.67981
29.26	2.66665
29.27	2.69165
29.28	2.68342
29.29	2.70053
29.3	2.66369
29.31	2.66303
29.32	2.68408
29.33	2.68704
29.34	2.67323
29.35	2.68474
29.36	2.66599
29.37	2.65415
29.38	2.66928
29.39	2.66895
29.4	2.70053
29.41	2.70546
29.42	2.66599
29.43	2.67981
29.44	2.70218
29.45	2.68639
29.46	2.68967
29.47	2.69033
29.48	2.65579
29.49	2.68474
29.5	2.71073
29.51	2.6775
29.52	2.66665
29.53	2.7025
29.54	2.68441
29.55	2.65382
29.56	2.68375
29.57	2.69954
29.58	2.71369
29.59	2.69231
29.6	2.72224
29.61	2.71797
29.62	2.68342
29.63	2.67783
29.64	2.69494
29.65	2.68211
29.66	2.69889
29.67	2.67849
29.68	2.6831
29.69	2.68013
29.7	2.6479
29.71	2.66138
29.72	2.68869
29.73	2.65645
29.74	2.65448
29.75	2.67981
29.76	2.68013
29.77	2.67092
29.78	2.69264
29.79	2.68935
29.8	2.68441
29.81	2.70481
29.82	2.68046
29.83	2.68803
29.84	2.69954
29.85	2.69987
29.86	2.65316
29.87	2.65546
29.88	2.66665
29.89	2.67027
29.9	2.66895
29.91	2.68935
29.92	2.67816
29.93	2.67224
29.94	2.6775
29.95	2.66698
29.96	2.65053
29.97	2.70086
29.98	2.68836
29.99	2.6877
30	2.69592
30.01	2.66698
30.02	2.6752
30.03	2.68408
30.04	2.67619
30.05	2.68244
30.06	2.67323
30.07	2.6706
30.08	2.67717
30.09	2.67816
30.1	2.69165
30.11	2.70612
30.12	2.71007
30.13	2.6956
30.14	2.66829
30.15	2.69165
30.16	2.66073
30.17	2.6877
30.18	2.6956
30.19	2.67191
30.2	2.68967
30.21	2.68342
30.22	2.6706
30.23	2.66138
30.24	2.66402
30.25	2.66994
30.26	2.70908
30.27	2.70185
30.28	2.67981
30.29	2.67224
30.3	2.66829
30.31	2.67027
30.32	2.67553
30.33	2.68639
30.34	2.67454
30.35	2.69987
30.36	2.69691
30.37	2.66698
30.38	2.64527
30.39	2.66007
30.4	2.66928
30.41	2.67487
30.42	2.67783
30.43	2.66369
30.44	2.71073
30.45	2.69921
30.46	2.69
30.47	2.7104
30.48	2.70218
30.49	2.68046
30.5	2.69757
30.51	2.68869
30.52	2.71204
30.53	2.68211
30.54	2.68178
30.55	2.68507
30.56	2.68013
30.57	2.67652
30.58	2.68737
30.59	2.67619
30.6	2.65777
30.61	2.665
30.62	2.7002
30.63	2.69921
30.64	2.72652
30.65	2.68277
30.66	2.68079
30.67	2.66073
30.68	2.68244
30.69	2.6752
30.7	2.68211
30.71	2.66533
30.72	2.68737
30.73	2.69099
30.74	2.68967
30.75	2.6752
30.76	2.66533
30.77	2.71862
30.78	2.67816
30.79	2.66204
30.8	2.69165
30.81	2.6831
30.82	2.6775
30.83	2.66698
30.84	2.65678
30.85	2.67257
30.86	2.70316
30.87	2.70974
30.88	2.68441
30.89	2.69231
30.9	2.70349
30.91	2.70481
30.92	2.67685
30.93	2.66007
30.94	2.6604
30.95	2.68836
30.96	2.69198
30.97	2.66763
30.98	2.67586
30.99	2.67685
31	2.68079
31.01	2.6831
31.02	2.66171
31.03	2.65744
31.04	2.67388
31.05	2.70908
31.06	2.69856
31.07	2.65415
31.08	2.65053
31.09	2.65152
31.1	2.70448
31.11	2.69757
31.12	2.69395
31.13	2.67816
31.14	2.66073
31.15	2.67915
31.16	2.68606
31.17	2.69724
31.18	2.66895
31.19	2.67224
31.2	2.69066
31.21	2.70711
31.22	2.70053
31.23	2.68375
31.24	2.65349
31.25	2.67224
31.26	2.65415
31.27	2.63869
31.28	2.68902
31.29	2.68573
31.3	2.68342
31.31	2.68737
31.32	2.68803
31.33	2.68046
31.34	2.68178
31.35	2.67948
31.36	2.65941
31.37	2.65546
31.38	2.69329
31.39	2.69625
31.4	2.67882
31.41	2.68967
31.42	2.68474
31.43	2.7127
31.44	2.69823
31.45	2.64724
31.46	2.64954
31.47	2.65809
31.48	2.69296
31.49	2.66698
31.5	2.69165
31.51	2.74691
31.52	2.7127
31.53	2.68342
31.54	2.6956
31.55	2.6706
31.56	2.67356
31.57	2.68178
31.58	2.67816
31.59	2.69889
31.6	2.66928
31.61	2.70843
31.62	2.69132
31.63	2.6877
31.64	2.66566
31.65	2.66204
31.66	2.65842
31.67	2.68079
31.68	2.67027
31.69	2.67882
31.7	2.66698
31.71	2.65481
31.72	2.69592
31.73	2.67027
31.74	2.67619
31.75	2.70086
31.76	2.71829
31.77	2.7104
31.78	2.69231
31.79	2.66171
31.8	2.67948
31.81	2.70645
31.82	2.69856
31.83	2.66763
31.84	2.68902
31.85	2.72586
31.86	2.72553
31.87	2.74099
31.88	2.7127
31.89	2.68211
31.9	2.68277
31.91	2.65908
31.92	2.68211
31.93	2.68342
31.94	2.68441
31.95	2.67586
31.96	2.68836
31.97	2.69132
31.98	2.7002
31.99	2.66533
32	2.66829
32.01	2.68606
32.02	2.69033
32.03	2.67388
32.04	2.66632
32.05	2.67816
32.06	2.69
32.07	2.67619
32.08	2.70283
32.09	2.6854
32.1	2.6854
32.11	2.69362
32.12	2.67882
32.13	2.70579
32.14	2.66533
32.15	2.68178
32.16	2.65875
32.17	2.64823
32.18	2.67125
32.19	2.68869
32.2	2.66336
32.21	2.6627
32.22	2.66796
32.23	2.68639
32.24	2.69264
32.25	2.67092
32.26	2.70349
32.27	2.69428
32.28	2.6877
32.29	2.70349
32.3	2.67652
32.31	2.69658
32.32	2.67487
32.33	2.66369
32.34	2.68277
32.35	2.69296
32.36	2.70053
32.37	2.69395
32.38	2.68342
32.39	2.68869
32.4	2.67421
32.41	2.67981
32.42	2.6729
32.43	2.68408
32.44	2.68671
32.45	2.69033
32.46	2.68079
32.47	2.67323
32.48	2.68211
32.49	2.64724
32.5	2.68375
32.51	2.69066
32.52	2.71369
32.53	2.69132
32.54	2.65415
32.55	2.67027
32.56	2.70152
32.57	2.70283
32.58	2.7025
32.59	2.67948
32.6	2.66599
32.61	2.65777
32.62	2.69362
32.63	2.67849
32.64	2.68013
32.65	2.65086
32.66	2.69132
32.67	2.68342
32.68	2.66303
32.69	2.67915
32.7	2.66073
32.71	2.69165
32.72	2.67717
32.73	2.67027
32.74	2.70612
32.75	2.70645
32.76	2.68079
32.77	2.69264
32.78	2.70119
32.79	2.67421
32.8	2.68112
32.81	2.67685
32.82	2.665
32.83	2.66829
32.84	2.70908
32.85	2.68178
32.86	2.68178
32.87	2.66467
32.88	2.69165
32.89	2.68244
32.9	2.67421
32.91	2.68375
32.92	2.6854
32.93	2.6877
32.94	2.67948
32.95	2.68967
32.96	2.68112
32.97	2.6979
32.98	2.66862
32.99	2.68803
33	2.66566
33.01	2.66928
33.02	2.70546
33.03	2.69823
33.04	2.68573
33.05	2.67816
33.06	2.67685
33.07	2.65744
33.08	2.66731
33.09	2.69823
33.1	2.69592
33.11	2.72882
33.12	2.67652
33.13	2.7002
33.14	2.67158
33.15	2.65316
33.16	2.70349
33.17	2.69428
33.18	2.6775
33.19	2.66434
33.2	2.67981
33.21	2.65645
33.22	2.67816
33.23	2.6752
33.24	2.64263
33.25	2.66895
33.26	2.66336
33.27	2.68079
33.28	2.67125
33.29	2.66073
33.3	2.68935
33.31	2.6854
33.32	2.67421
33.33	2.69494
33.34	2.68046
33.35	2.68112
33.36	2.64855
33.37	2.64198
33.38	2.64658
33.39	2.66336
33.4	2.67125
33.41	2.68178
33.42	2.69954
33.43	2.66106
33.44	2.66763
33.45	2.66336
33.46	2.67652
33.47	2.66665
33.48	2.65283
33.49	2.66632
33.5	2.67816
33.51	2.66928
33.52	2.70119
33.53	2.6752
33.54	2.67652
33.55	2.67323
33.56	2.67652
33.57	2.68639
33.58	2.69658
33.59	2.7206
33.6	2.6877
33.61	2.65217
33.62	2.71764
33.63	2.70316
33.64	2.67981
33.65	2.69757
33.66	2.66961
33.67	2.69592
33.68	2.69395
33.69	2.68869
33.7	2.66303
33.71	2.67158
33.72	2.66994
33.73	2.6854
33.74	2.69395
33.75	2.69198
33.76	2.665
33.77	2.65349
33.78	2.69033
33.79	2.68803
33.8	2.68145
33.81	2.68639
33.82	2.71402
33.83	2.69395
33.84	2.67191
33.85	2.68112
33.86	2.66698
33.87	2.68639
33.88	2.7127
33.89	2.69165
33.9	2.67882
33.91	2.70119
33.92	2.67948
33.93	2.67487
33.94	2.71237
33.95	2.68836
33.96	2.69921
33.97	2.67783
33.98	2.69033
33.99	2.66106
34	2.65152
34.01	2.66434
34.02	2.67652
34.03	2.67816
34.04	2.67487
34.05	2.66829
34.06	2.67685
34.07	2.69527
34.08	2.70349
34.09	2.71204
34.1	2.72586
34.11	2.67323
34.12	2.63967
34.13	2.69165
34.14	2.69592
34.15	2.67388
34.16	2.68606
34.17	2.66994
34.18	2.67915
34.19	2.70119
34.2	2.66171
34.21	2.67652
34.22	2.68441
34.23	2.6956
34.24	2.67948
34.25	2.6979
34.26	2.68671
34.27	2.665
34.28	2.67652
34.29	2.66665
34.3	2.69264
34.31	2.69724
34.32	2.67125
34.33	2.68408
34.34	2.69658
34.35	2.6956
34.36	2.70382
34.37	2.67948
34.38	2.68671
34.39	2.65053
34.4	2.64757
34.41	2.69165
34.42	2.69691
34.43	2.68967
34.44	2.6706
34.45	2.70579
34.46	2.69198
34.47	2.67948
34.48	2.68408
34.49	2.67652
34.5	2.69724
34.51	2.66303
34.52	2.66599
34.53	2.70612
34.54	2.67553
34.55	2.71336
34.56	2.69823
34.57	2.69264
34.58	2.71303
34.59	2.69954
34.6	2.66829
34.61	2.65382
34.62	2.69461
34.63	2.68375
34.64	2.68902
34.65	2.69362
34.66	2.67685
34.67	2.68606
34.68	2.68277
34.69	2.64395
34.7	2.6877
34.71	2.67717
34.72	2.68639
34.73	2.70744
34.74	2.67092
34.75	2.67717
34.76	2.68639
34.77	2.66698
34.78	2.67553
34.79	2.67257
34.8	2.6877
34.81	2.65349
34.82	2.65217
34.83	2.67553
34.84	2.69954
34.85	2.67027
34.86	2.68277
34.87	2.70645
34.88	2.70382
34.89	2.68902
34.9	2.68013
34.91	2.68244
34.92	2.69066
34.93	2.6775
34.94	2.67388
34.95	2.67388
34.96	2.65415
34.97	2.68441
34.98	2.71106
34.99	2.70218
35	2.68606
35.01	2.70349
35.02	2.67849
35.03	2.66566
35.04	2.70053
35.05	2.64987
35.06	2.68013
35.07	2.68408
35.08	2.69132
35.09	2.68375
35.1	2.67454
35.11	2.6729
35.12	2.68277
35.13	2.69362
35.14	2.69625
35.15	2.67717
35.16	2.6979
35.17	2.69395
35.18	2.68474
35.19	2.69724
35.2	2.69362
35.21	2.66961
35.22	2.68244
35.23	2.65283
35.24	2.66138
35.25	2.64625
35.26	2.64033
35.27	2.65842
35.28	2.67487
35.29	2.68902
35.3	2.68902
35.31	2.69658
35.32	2.70119
35.33	2.67487
35.34	2.67421
35.35	2.67849
35.36	2.63967
35.37	2.66467
35.38	2.69527
35.39	2.64954
35.4	2.66566
35.41	2.66763
35.42	2.65283
35.43	2.68639
35.44	2.68211
35.45	2.66862
35.46	2.68737
35.47	2.63934
35.48	2.68935
35.49	2.69329
35.5	2.68507
35.51	2.67685
35.52	2.69494
35.53	2.71566
35.54	2.68902
35.55	2.67356
35.56	2.68606
35.57	2.67224
35.58	2.67586
35.59	2.6831
35.6	2.71171
35.61	2.66796
35.62	2.66796
35.63	2.65645
35.64	2.67915
35.65	2.67323
35.66	2.68836
35.67	2.69954
35.68	2.65513
35.69	2.68013
35.7	2.66434
35.71	2.69099
35.72	2.68704
35.73	2.67356
35.74	2.64527
35.75	2.66632
35.76	2.70218
35.77	2.71665
35.78	2.66237
35.79	2.68211
35.8	2.66171
35.81	2.65349
35.82	2.6956
35.83	2.67125
35.84	2.65382
35.85	2.66369
35.86	2.67388
35.87	2.69625
35.88	2.65217
35.89	2.64987
35.9	2.6729
35.91	2.68737
35.92	2.69921
35.93	2.70283
35.94	2.70744
35.95	2.6604
35.96	2.68671
35.97	2.70612
35.98	2.70218
35.99	2.72389
36	2.67388
36.01	2.66731
36.02	2.68408
36.03	2.69099
36.04	2.68112
36.05	2.69428
36.06	2.70777
36.07	2.71106
36.08	2.70448
36.09	2.68244
36.1	2.7081
36.11	2.71073
36.12	2.66796
36.13	2.66731
36.14	2.67224
36.15	2.67257
36.16	2.68211
36.17	2.71237
36.18	2.6877
36.19	2.68375
36.2	2.69889
36.21	2.67356
36.22	2.67224
36.23	2.65842
36.24	2.67421
36.25	2.69921
36.26	2.70283
36.27	2.6775
36.28	2.67849
36.29	2.66862
36.3	2.68935
36.31	2.67388
36.32	2.70448
36.33	2.66599
36.34	2.67816
36.35	2.68671
36.36	2.68474
36.37	2.69954
36.38	2.65809
36.39	2.68935
36.4	2.68112
36.41	2.6729
36.42	2.65053
36.43	2.65152
36.44	2.69296
36.45	2.68836
36.46	2.66007
36.47	2.68046
36.48	2.70481
36.49	2.67685
36.5	2.65217
36.51	2.66303
36.52	2.66829
36.53	2.66402
36.54	2.66566
36.55	2.66007
36.56	2.67553
36.57	2.68244
36.58	2.67948
36.59	2.69987
36.6	2.69231
36.61	2.65448
36.62	2.69198
36.63	2.69987
36.64	2.69231
36.65	2.68967
36.66	2.69461
36.67	2.68803
36.68	2.70908
36.69	2.70119
36.7	2.65974
36.71	2.66204
36.72	2.6604
36.73	2.6752
36.74	2.68277
36.75	2.68178
36.76	2.70283
36.77	2.69329
36.78	2.66829
36.79	2.68013
36.8	2.68967
36.81	2.7025
36.82	2.69527
36.83	2.69527
36.84	2.67717
36.85	2.68671
36.86	2.68935
36.87	2.68046
36.88	2.66961
36.89	2.65777
36.9	2.64921
36.91	2.65941
36.92	2.65645
36.93	2.65316
36.94	2.69428
36.95	2.68277
36.96	2.68277
36.97	2.68277
36.98	2.69527
36.99	2.67158
37	2.68211
37.01	2.68671
37.02	2.69592
37.03	2.65908
37.04	2.67454
37.05	2.68639
37.06	2.68178
37.07	2.66336
37.08	2.6752
37.09	2.67915
37.1	2.66928
37.11	2.67816
37.12	2.68079
37.13	2.68507
37.14	2.72454
37.15	2.66106
37.16	2.70612
37.17	2.69724
37.18	2.67619
37.19	2.69856
37.2	2.6877
37.21	2.67224
37.22	2.67783
37.23	2.68178
37.24	2.69099
37.25	2.68474
37.26	2.71961
37.27	2.70777
37.28	2.70579
37.29	2.67092
37.3	2.66369
37.31	2.69527
37.32	2.69198
37.33	2.69362
37.34	2.7127
37.35	2.68277
37.36	2.67652
37.37	2.65053
37.38	2.67092
37.39	2.66961
37.4	2.70612
37.41	2.69856
37.42	2.67717
37.43	2.68211
37.44	2.66467
37.45	2.67224
37.46	2.67685
37.47	2.68902
37.48	2.6706
37.49	2.66895
37.5	2.67783
37.51	2.68277
37.52	2.68277
37.53	2.71994
37.54	2.69264
37.55	2.71237
37.56	2.70448
37.57	2.6706
37.58	2.68441
37.59	2.68046
37.6	2.65645
37.61	2.67948
37.62	2.64823
37.63	2.69658
37.64	2.68803
37.65	2.64461
37.66	2.66303
37.67	2.70119
37.68	2.68803
37.69	2.6979
37.7	2.68869
37.71	2.66369
37.72	2.69329
37.73	2.70218
37.74	2.69165
37.75	2.68342
37.76	2.66402
37.77	2.70185
37.78	2.68573
37.79	2.69856
37.8	2.69099
37.81	2.66796
37.82	2.67323
37.83	2.70185
37.84	2.67323
37.85	2.66402
37.86	2.65744
37.87	2.6775
37.88	2.65711
37.89	2.67586
37.9	2.62388
37.91	2.66073
37.92	2.68408
37.93	2.65974
37.94	2.66138
37.95	2.70777
37.96	2.66994
37.97	2.67224
37.98	2.67948
37.99	2.69625
38	2.68573
38.01	2.66731
38.02	2.6752
38.03	2.69724
38.04	2.69362
38.05	2.68441
38.06	2.70415
38.07	2.7025
38.08	2.68902
38.09	2.69823
38.1	2.69757
38.11	2.715
38.12	2.68079
38.13	2.64888
38.14	2.67487
38.15	2.67191
38.16	2.66171
38.17	2.68573
38.18	2.66928
38.19	2.70843
38.2	2.67092
38.21	2.65513
38.22	2.68211
38.23	2.66928
38.24	2.68145
38.25	2.68277
38.26	2.66138
38.27	2.70283
38.28	2.67685
38.29	2.68737
38.3	2.6854
38.31	2.70941
38.32	2.70612
38.33	2.68902
38.34	2.69132
38.35	2.69625
38.36	2.68013
38.37	2.69231
38.38	2.70875
38.39	2.68342
38.4	2.66895
38.41	2.69856
38.42	2.68375
38.43	2.73112
38.44	2.71171
38.45	2.65119
38.46	2.67553
38.47	2.68639
38.48	2.68112
38.49	2.67487
38.5	2.67685
38.51	2.69
38.52	2.66467
38.53	2.66961
38.54	2.66862
38.55	2.70974
38.56	2.69461
38.57	2.65744
38.58	2.66698
38.59	2.67553
38.6	2.69
38.61	2.6706
38.62	2.68013
38.63	2.66402
38.64	2.65217
38.65	2.66796
38.66	2.66566
38.67	2.70777
38.68	2.7025
38.69	2.67224
38.7	2.65316
38.71	2.64165
38.72	2.6706
38.73	2.69066
38.74	2.68803
38.75	2.66665
38.76	2.69724
38.77	2.64395
38.78	2.64296
38.79	2.66928
38.8	2.70678
38.81	2.69494
38.82	2.71171
38.83	2.70185
38.84	2.68737
38.85	2.68474
38.86	2.72158
38.87	2.6775
38.88	2.66665
38.89	2.67027
38.9	2.6877
38.91	2.67882
38.92	2.66566
38.93	2.69165
38.94	2.69757
38.95	2.67652
38.96	2.68112
38.97	2.64296
38.98	2.67027
38.99	2.62882
39	2.6854
39.01	2.69428
39.02	2.6752
39.03	2.66698
39.04	2.7002
39.05	2.6877
39.06	2.69362
39.07	2.68606
39.08	2.65184
39.09	2.66665
39.1	2.67356
39.11	2.6956
39.12	2.67257
39.13	2.6877
39.14	2.65777
39.15	2.63507
39.16	2.68704
39.17	2.72849
39.18	2.68639
39.19	2.69264
39.2	2.66698
39.21	2.67717
39.22	2.66731
39.23	2.65152
39.24	2.66862
39.25	2.71928
39.26	2.6752
39.27	2.68836
39.28	2.67948
39.29	2.64461
39.3	2.65941
39.31	2.68178
39.32	2.68507
39.33	2.68902
39.34	2.6831
39.35	2.68277
39.36	2.67323
39.37	2.69033
39.38	2.66928
39.39	2.65382
39.4	2.66829
39.41	2.67224
39.42	2.65382
39.43	2.67652
39.44	2.68178
39.45	2.65316
39.46	2.66434
39.47	2.66204
39.48	2.6627
39.49	2.66303
39.5	2.66007
39.51	2.66073
39.52	2.65382
39.53	2.67224
39.54	2.6706
39.55	2.67619
39.56	2.67092
39.57	2.69296
39.58	2.6956
39.59	2.6775
39.6	2.65053
39.61	2.64
39.62	2.68869
39.63	2.67257
39.64	2.66928
39.65	2.69231
39.66	2.70086
39.67	2.66731
39.68	2.71106
39.69	2.66862
39.7	2.69428
39.71	2.65744
39.72	2.67717
39.73	2.66204
39.74	2.65448
39.75	2.67191
39.76	2.68046
39.77	2.69231
39.78	2.67092
39.79	2.65941
39.8	2.6752
39.81	2.70053
39.82	2.70415
39.83	2.6604
39.84	2.67685
39.85	2.66336
39.86	2.6831
39.87	2.69494
39.88	2.70711
39.89	2.71435
39.9	2.66106
39.91	2.6706
39.92	2.67421
39.93	2.69757
39.94	2.70481
39.95	2.66698
39.96	2.68046
39.97	2.6831
39.98	2.67388
39.99	2.68013
40	2.67224
40.01	2.68606
40.02	2.6877
40.03	2.68441
40.04	2.70086
40.05	2.71139
40.06	2.66665
40.07	2.65711
40.08	2.64
40.09	2.66204
40.1	2.67553
40.11	2.68902
40.12	2.71139
40.13	2.66928
40.14	2.64724
40.15	2.6729
40.16	2.67652
40.17	2.68046
40.18	2.67487
40.19	2.67257
40.2	2.67882
40.21	2.68869
40.22	2.68803
40.23	2.67882
40.24	2.67849
40.25	2.68342
40.26	2.67454
40.27	2.6877
40.28	2.67257
40.29	2.66829
40.3	2.68013
40.31	2.67717
40.32	2.715
40.33	2.67717
40.34	2.69921
40.35	2.68967
40.36	2.68079
40.37	2.67619
40.38	2.65415
40.39	2.68277
40.4	2.66796
40.41	2.67685
40.42	2.66862
40.43	2.69099
40.44	2.69494
40.45	2.66434
40.46	2.68342
40.47	2.69658
40.48	2.69231
40.49	2.67981
40.5	2.69856
40.51	2.72093
40.52	2.66961
40.53	2.65382
40.54	2.69099
40.55	2.69165
40.56	2.68869
40.57	2.68573
40.58	2.67356
40.59	2.68803
40.6	2.65908
40.61	2.65481
40.62	2.65777
40.63	2.66369
40.64	2.65448
40.65	2.65349
40.66	2.66533
40.67	2.68277
40.68	2.67553
40.69	2.69691
40.7	2.69
40.71	2.68408
40.72	2.6706
40.73	2.68803
40.74	2.69954
40.75	2.67224
40.76	2.67783
40.77	2.68737
40.78	2.68935
40.79	2.67125
40.8	2.69461
40.81	2.71764
40.82	2.72125
40.83	2.67948
40.84	2.64527
40.85	2.66336
40.86	2.70777
40.87	2.69
40.88	2.67553
40.89	2.66895
40.9	2.66566
40.91	2.66566
40.92	2.66731
40.93	2.67388
40.94	2.6752
40.95	2.68869
40.96	2.65579
40.97	2.66303
40.98	2.64362
40.99	2.67257
41	2.68639
41.01	2.69889
41.02	2.66632
41.03	2.69889
41.04	2.66829
41.05	2.63902
41.06	2.65415
41.07	2.71698
41.08	2.67454
41.09	2.70119
41.1	2.6831
41.11	2.66402
41.12	2.69461
41.13	2.7002
41.14	2.66106
41.15	2.6752
41.16	2.64888
41.17	2.65349
41.18	2.64921
41.19	2.6479
41.2	2.67816
41.21	2.66007
41.22	2.66698
41.23	2.68902
41.24	2.68145
41.25	2.69329
41.26	2.66731
41.27	2.67882
41.28	2.65579
41.29	2.665
41.3	2.70086
41.31	2.69132
41.32	2.6775
41.33	2.65908
41.34	2.69856
41.35	2.67586
41.36	2.67816
41.37	2.64494
41.38	2.66796
41.39	2.6423
41.4	2.65809
41.41	2.69658
41.42	2.70382
41.43	2.7206
41.44	2.69691
41.45	2.70218
41.46	2.68342
41.47	2.67619
41.48	2.69395
41.49	2.69264
41.5	2.69296
41.51	2.66533
41.52	2.68704
41.53	2.66632
41.54	2.6877
41.55	2.67652
41.56	2.65119
41.57	2.66402
41.58	2.69724
41.59	2.65579
41.6	2.70053
41.61	2.69165
41.62	2.6729
41.63	2.6956
41.64	2.69625
41.65	2.6877
41.66	2.64296
41.67	2.65349
41.68	2.68507
41.69	2.69625
41.7	2.69954
41.71	2.70941
41.72	2.70777
41.73	2.69494
41.74	2.73507
41.75	2.68375
41.76	2.68869
41.77	2.66928
41.78	2.68967
41.79	2.69592
41.8	2.69428
41.81	2.67454
41.82	2.66566
41.83	2.68671
41.84	2.67356
41.85	2.68474
41.86	2.69264
41.87	2.67356
41.88	2.68507
41.89	2.67257
41.9	2.70481
41.91	2.65546
41.92	2.67158
41.93	2.68178
41.94	2.67454
41.95	2.65809
41.96	2.68013
41.97	2.69198
41.98	2.68507
41.99	2.68046
42	2.68507
42.01	2.70974
42.02	2.72356
42.03	2.68079
42.04	2.69428
42.05	2.70448
42.06	2.67717
42.07	2.67454
42.08	2.67257
42.09	2.65744
42.1	2.66237
42.11	2.66566
42.12	2.72093
42.13	2.715
42.14	2.66698
42.15	2.67849
42.16	2.66336
42.17	2.6525
42.18	2.67454
42.19	2.67882
42.2	2.66303
42.21	2.67487
42.22	2.67487
42.23	2.665
42.24	2.68441
42.25	2.68869
42.26	2.69198
42.27	2.7127
42.28	2.66204
42.29	2.6706
42.3	2.69329
42.31	2.67981
42.32	2.66467
42.33	2.65974
42.34	2.66467
42.35	2.66599
42.36	2.68671
42.37	2.68902
42.38	2.70382
42.39	2.6831
42.4	2.69165
42.41	2.70777
42.42	2.68112
42.43	2.69987
42.44	2.66665
42.45	2.65678
42.46	2.65645
42.47	2.68474
42.48	2.66336
42.49	2.66994
42.5	2.65053
42.51	2.63967
42.52	2.67586
42.53	2.68704
42.54	2.64987
42.55	2.67882
42.56	2.67586
42.57	2.69264
42.58	2.69329
42.59	2.70415
42.6	2.6854
42.61	2.68967
42.62	2.69757
42.63	2.71336
42.64	2.67652
42.65	2.67882
42.66	2.65513
42.67	2.65086
42.68	2.68639
42.69	2.68704
42.7	2.6775
42.71	2.66237
42.72	2.6275
42.73	2.65711
42.74	2.65809
42.75	2.68836
42.76	2.6979
42.77	2.66731
42.78	2.68935
42.79	2.69165
42.8	2.69592
42.81	2.70053
42.82	2.71106
42.83	2.70645
42.84	2.69099
42.85	2.67783
42.86	2.6831
42.87	2.65119
42.88	2.6729
42.89	2.67652
42.9	2.70744
42.91	2.70185
42.92	2.69099
42.93	2.71007
42.94	2.67849
42.95	2.65744
42.96	2.66171
42.97	2.66566
42.98	2.67783
42.99	2.67882
43	2.65974
43.01	2.69165
43.02	2.67092
43.03	2.67125
43.04	2.66895
43.05	2.68013
43.06	2.64559
43.07	2.64954
43.08	2.6604
43.09	2.68474
43.1	2.68441
43.11	2.67553
43.12	2.70119
43.13	2.68013
43.14	2.64987
43.15	2.68507
43.16	2.68902
43.17	2.68606
43.18	2.69165
43.19	2.66106
43.2	2.67191
43.21	2.69296
43.22	2.66599
43.23	2.67685
43.24	2.68671
43.25	2.71336
43.26	2.69362
43.27	2.68408
43.28	2.65119
43.29	2.65974
43.3	2.66369
43.31	2.66336
43.32	2.70316
43.33	2.66665
43.34	2.67454
43.35	2.6423
43.36	2.65744
43.37	2.66533
43.38	2.67125
43.39	2.69527
43.4	2.69033
43.41	2.71336
43.42	2.7002
43.43	2.66796
43.44	2.66237
43.45	2.67388
43.46	2.67356
43.47	2.66796
43.48	2.6979
43.49	2.64527
43.5	2.66402
43.51	2.70086
43.52	2.67191
43.53	2.64724
43.54	2.65316
43.55	2.66007
43.56	2.64724
43.57	2.69
43.58	2.70711
43.59	2.7025
43.6	2.70908
43.61	2.68079
43.62	2.71106
43.63	2.68902
43.64	2.6752
43.65	2.69987
43.66	2.68967
43.67	2.6831
43.68	2.71073
43.69	2.64823
43.7	2.67783
43.71	2.66994
43.72	2.68211
43.73	2.69527
43.74	2.68836
43.75	2.67981
43.76	2.65842
43.77	2.67224
43.78	2.69132
43.79	2.70612
43.8	2.6854
43.81	2.69757
43.82	2.6877
43.83	2.67487
43.84	2.67553
43.85	2.65842
43.86	2.65809
43.87	2.67882
43.88	2.64
43.89	2.65448
43.9	2.69198
43.91	2.69823
43.92	2.67323
43.93	2.67421
43.94	2.69362
43.95	2.70053
43.96	2.72783
43.97	2.71468
43.98	2.67652
43.99	2.66533
44	2.67717
44.01	2.68046
44.02	2.68836
44.03	2.69033
44.04	2.69889
44.05	2.66665
44.06	2.67717
44.07	2.70218
44.08	2.65744
44.09	2.70579
44.1	2.68836
44.11	2.68573
44.12	2.6956
44.13	2.6752
44.14	2.65711
44.15	2.6525
44.16	2.66665
44.17	2.68145
44.18	2.65809
44.19	2.66566
44.2	2.69987
44.21	2.68013
44.22	2.66665
44.23	2.65119
44.24	2.66467
44.25	2.69099
44.26	2.65579
44.27	2.66862
44.28	2.66599
44.29	2.66698
44.3	2.69066
44.31	2.66994
44.32	2.68046
44.33	2.68507
44.34	2.68112
44.35	2.64823
44.36	2.63934
44.37	2.66007
44.38	2.6706
44.39	2.6775
44.4	2.68046
44.41	2.65941
44.42	2.67586
44.43	2.6627
44.44	2.67915
44.45	2.65842
44.46	2.65875
44.47	2.6706
44.48	2.63441
44.49	2.65908
44.5	2.64987
44.51	2.63902
44.52	2.69231
44.53	2.66467
44.54	2.66665
44.55	2.68013
44.56	2.65382
44.57	2.69
44.58	2.70053
44.59	2.68375
44.6	2.67619
44.61	2.66467
44.62	2.68145
44.63	2.65283
44.64	2.67619
44.65	2.66632
44.66	2.65744
44.67	2.66434
44.68	2.71336
44.69	2.68046
44.7	2.67388
44.71	2.67685
44.72	2.6831
44.73	2.69823
44.74	2.67356
44.75	2.66895
44.76	2.70645
44.77	2.6956
44.78	2.69527
44.79	2.67257
44.8	2.65875
44.81	2.68079
44.82	2.68079
44.83	2.67685
44.84	2.64691
44.85	2.65809
44.86	2.67553
44.87	2.66763
44.88	2.70185
44.89	2.70218
44.9	2.68211
44.91	2.67027
44.92	2.64329
44.93	2.68671
44.94	2.69658
44.95	2.70086
44.96	2.68671
44.97	2.66994
44.98	2.70678
44.99	2.68046
45	2.66237
45.01	2.69856
45.02	2.70086
45.03	2.6604
45.04	2.71336
45.05	2.69889
45.06	2.66566
45.07	2.66665
45.08	2.67849
45.09	2.65053
45.1	2.66829
45.11	2.66007
45.12	2.67323
45.13	2.67224
45.14	2.64362
45.15	2.64625
45.16	2.65316
45.17	2.69
45.18	2.69165
45.19	2.68967
45.2	2.72125
45.21	2.66994
45.22	2.66928
45.23	2.69
45.24	2.69165
45.25	2.70119
45.26	2.68737
45.27	2.65448
45.28	2.67125
45.29	2.68178
45.3	2.65974
45.31	2.69757
45.32	2.67158
45.33	2.66698
45.34	2.68606
45.35	2.6775
45.36	2.67092
45.37	2.67915
45.38	2.66171
45.39	2.68013
45.4	2.67487
45.41	2.63737
45.42	2.66073
45.43	2.6706
45.44	2.67092
45.45	2.67224
45.46	2.70382
45.47	2.7002
45.48	2.67356
45.49	2.66895
45.5	2.66204
45.51	2.6877
45.52	2.68474
45.53	2.64428
45.54	2.67421
45.55	2.66665
45.56	2.66566
45.57	2.65842
45.58	2.67027
45.59	2.66829
45.6	2.67356
45.61	2.67487
45.62	2.69165
45.63	2.67158
45.64	2.65546
45.65	2.69165
45.66	2.67356
45.67	2.67882
45.68	2.66533
45.69	2.6502
45.7	2.65152
45.71	2.71402
45.72	2.66829
45.73	2.66434
45.74	2.65382
45.75	2.665
45.76	2.67717
45.77	2.6877
45.78	2.69461
45.79	2.69198
45.8	2.67125
45.81	2.69889
45.82	2.68046
45.83	2.65546
45.84	2.68671
45.85	2.69296
45.86	2.69165
45.87	2.67981
45.88	2.67356
45.89	2.66961
45.9	2.69658
45.91	2.65645
45.92	2.69428
45.93	2.61467
45.94	2.66467
45.95	2.7252
45.96	2.65579
45.97	2.68737
45.98	2.68244
45.99	2.70448
46	2.69165
46.01	2.67158
46.02	2.65908
46.03	2.67553
46.04	2.68639
46.05	2.69264
46.06	2.68803
46.07	2.67125
46.08	2.69691
46.09	2.68211
46.1	2.65546
46.11	2.67125
46.12	2.66467
46.13	2.66303
46.14	2.67849
46.15	2.67257
46.16	2.68737
46.17	2.6627
46.18	2.64823
46.19	2.68902
46.2	2.67882
46.21	2.68671
46.22	2.66237
46.23	2.67619
46.24	2.68145
46.25	2.68079
46.26	2.68178
46.27	2.65809
46.28	2.69231
46.29	2.68013
46.3	2.70185
46.31	2.6525
46.32	2.66106
46.33	2.68408
46.34	2.67323
46.35	2.67882
46.36	2.67257
46.37	2.66007
46.38	2.66632
46.39	2.67981
46.4	2.66665
46.41	2.69296
46.42	2.69132
46.43	2.65908
46.44	2.63836
46.45	2.68836
46.46	2.70415
46.47	2.66467
46.48	2.70152
46.49	2.64527
46.5	2.67717
46.51	2.68211
46.52	2.6877
46.53	2.67619
46.54	2.67224
46.55	2.68408
46.56	2.69264
46.57	2.68573
46.58	2.66336
46.59	2.67586
46.6	2.68013
46.61	2.68244
46.62	2.67948
46.63	2.64066
46.64	2.6877
46.65	2.69264
46.66	2.69264
46.67	2.68869
46.68	2.67191
46.69	2.69428
46.7	2.69033
46.71	2.66763
46.72	2.66171
46.73	2.66961
46.74	2.68869
46.75	2.67586
46.76	2.66237
46.77	2.66106
46.78	2.67619
46.79	2.6877
46.8	2.65678
46.81	2.67619
46.82	2.66434
46.83	2.70843
46.84	2.69625
46.85	2.68013
46.86	2.65481
46.87	2.64296
46.88	2.69889
46.89	2.73079
46.9	2.66467
46.91	2.64198
46.92	2.67158
46.93	2.66336
46.94	2.68803
46.95	2.70941
46.96	2.68178
46.97	2.71566
46.98	2.69099
46.99	2.67849
47	2.67586
47.01	2.69198
47.02	2.70086
47.03	2.66566
47.04	2.66632
47.05	2.68145
47.06	2.66895
47.07	2.68244
47.08	2.65974
47.09	2.68079
47.1	2.67454
47.11	2.65711
47.12	2.67191
47.13	2.69691
47.14	2.68277
47.15	2.67388
47.16	2.68869
47.17	2.7104
47.18	2.65941
47.19	2.6525
47.2	2.6729
47.21	2.67191
47.22	2.67224
47.23	2.67454
47.24	2.6775
47.25	2.68277
47.26	2.66566
47.27	2.68704
47.28	2.65941
47.29	2.65645
47.3	2.67915
47.31	2.68408
47.32	2.66467
47.33	2.66862
47.34	2.69625
47.35	2.66237
47.36	2.67125
47.37	2.66204
47.38	2.66994
47.39	2.67191
47.4	2.67652
47.41	2.65875
47.42	2.66599
47.43	2.67487
47.44	2.67027
47.45	2.69691
47.46	2.68869
47.47	2.66106
47.48	2.69132
47.49	2.66007
47.5	2.6775
47.51	2.67783
47.52	2.69198
47.53	2.65448
47.54	2.64987
47.55	2.6775
47.56	2.70152
47.57	2.66895
47.58	2.67487
47.59	2.69033
47.6	2.66336
47.61	2.67717
47.62	2.61072
47.63	2.66434
47.64	2.68639
47.65	2.67454
47.66	2.68375
47.67	2.66829
47.68	2.63112
47.69	2.67553
47.7	2.65809
47.71	2.65744
47.72	2.67092
47.73	2.68211
47.74	2.64625
47.75	2.67685
47.76	2.65842
47.77	2.7002
47.78	2.68145
47.79	2.68507
47.8	2.71237
47.81	2.71237
47.82	2.67092
47.83	2.65349
47.84	2.67717
47.85	2.66665
47.86	2.69954
47.87	2.67553
47.88	2.67125
47.89	2.6752
47.9	2.69033
47.91	2.65349
47.92	2.68737
47.93	2.67224
47.94	2.67388
47.95	2.67257
47.96	2.64757
47.97	2.66106
47.98	2.65349
47.99	2.66763
48	2.67652
48.01	2.73014
48.02	2.69395
48.03	2.68803
48.04	2.6627
48.05	2.68869
48.06	2.64198
48.07	2.66928
48.08	2.69329
48.09	2.66073
48.1	2.68145
48.11	2.66204
48.12	2.66665
48.13	2.66763
48.14	2.67224
48.15	2.66566
48.16	2.72389
48.17	2.69724
48.18	2.68573
48.19	2.66665
48.2	2.65842
48.21	2.6298
48.22	2.67421
48.23	2.70908
48.24	2.68671
48.25	2.67454
48.26	2.66763
48.27	2.67619
48.28	2.70777
48.29	2.6752
48.3	2.6831
48.31	2.67257
48.32	2.6854
48.33	2.68178
48.34	2.67224
48.35	2.66434
48.36	2.68573
48.37	2.70218
48.38	2.67257
48.39	2.67323
48.4	2.68112
48.41	2.68803
48.42	2.67915
48.43	2.66369
48.44	2.67224
48.45	2.67816
48.46	2.67388
48.47	2.69
48.48	2.68178
48.49	2.65152
48.5	2.66073
48.51	2.68639
48.52	2.68112
48.53	2.69428
48.54	2.69461
48.55	2.65941
48.56	2.66566
48.57	2.665
48.58	2.66369
48.59	2.69198
48.6	2.64888
48.61	2.7229
48.62	2.65908
48.63	2.65612
48.64	2.67191
48.65	2.70283
48.66	2.70152
48.67	2.66533
48.68	2.66467
48.69	2.68013
48.7	2.67191
48.71	2.65777
48.72	2.68112
48.73	2.66994
48.74	2.65875
48.75	2.66961
48.76	2.66599
48.77	2.67915
48.78	2.66106
48.79	2.65546
48.8	2.66303
48.81	2.66566
48.82	2.65908
48.83	2.64658
48.84	2.67421
48.85	2.6479
48.86	2.64494
48.87	2.69428
48.88	2.65316
48.89	2.67487
48.9	2.67191
48.91	2.68112
48.92	2.66303
48.93	2.6854
48.94	2.67356
48.95	2.6604
48.96	2.68441
48.97	2.67915
48.98	2.68013
48.99	2.67783
49	2.67652
49.01	2.68606
49.02	2.67158
49.03	2.68639
49.04	2.68606
49.05	2.71435
49.06	2.66895
49.07	2.65678
49.08	2.68737
49.09	2.67915
49.1	2.67717
49.11	2.65349
49.12	2.65941
49.13	2.65908
49.14	2.66961
49.15	2.68441
49.16	2.6831
49.17	2.70218
49.18	2.67915
49.19	2.66632
49.2	2.66336
49.21	2.66796
49.22	2.6752
49.23	2.64559
49.24	2.65711
49.25	2.6854
49.26	2.67717
49.27	2.69066
49.28	2.68573
49.29	2.65875
49.3	2.67388
49.31	2.66073
49.32	2.665
49.33	2.67652
49.34	2.69428
49.35	2.67027
49.36	2.65809
49.37	2.67323
49.38	2.66829
49.39	2.68902
49.4	2.6706
49.41	2.67356
49.42	2.68606
49.43	2.67421
49.44	2.66698
49.45	2.67586
49.46	2.67191
49.47	2.65415
49.48	2.70612
49.49	2.68013
49.5	2.6706
49.51	2.65513
49.52	2.6831
49.53	2.6729
49.54	2.68441
49.55	2.68342
49.56	2.64263
49.57	2.68375
49.58	2.66665
49.59	2.615
49.6	2.65908
49.61	2.67717
49.62	2.65875
49.63	2.67125
49.64	2.65546
49.65	2.68375
49.66	2.69954
49.67	2.66336
49.68	2.66237
49.69	2.69527
49.7	2.68112
49.71	2.66369
49.72	2.6729
49.73	2.6604
49.74	2.66434
49.75	2.65645
49.76	2.68013
49.77	2.68244
49.78	2.67421
49.79	2.67388
49.8	2.68869
49.81	2.66336
49.82	2.6752
49.83	2.71106
49.84	2.68803
49.85	2.68474
49.86	2.66599
49.87	2.65184
49.88	2.65316
49.89	2.64658
49.9	2.64921
49.91	2.66994
49.92	2.66862
49.93	2.66106
49.94	2.69033
49.95	2.69921
49.96	2.6854
49.97	2.65513
49.98	2.65941
49.99	2.67092
50	2.66665
