"BIO-KINE ASCII FILE"
"_COMMENT"	"MOS-500 Spectrometer"
"_COMMENT"	"Kinetics measurement"
"_COMMENT"	"Y Unit : Volt,  X Unit : s"
"_COMMENT"	"Excitation wavelength : 380 nm"
"_COMMENT"	"Fentes bandwidth =  1 nm"
"_COMMENT"	"HV= 850V"
"_COMMENT"	"Timebase  1 =  .01 s   3001 pts"
"_SFM"	"SFM-400 /S  Advanced mode"
"_SFM"	"Ratio : S1: 2.5, S2: 0, S3: 0, S4: 1"
"_SFM"	"Content : S1: , S2: , S3: , S4:"
"_SFM"	"Concentration : S1: , S2: , S3: , S4:"
"_SFM"	"Total volume : 209 µl  Flow : 3.5 mL/s"
"_SFM"	"Acquisition start :  10 ms before stop"
"_SFM"	"cuve=FC-15, s1=10 ml , s2=10 ml , s3=10 ml , s4=1.9 ml"
"_UNITX"	"s"
"_UNITY"	"Volt"
"_DELTAX"	0
"_DATA"
1e-300	9.59282
0.01	10.13
0.02	10.582
0.03	10.6757
0.04	10.6205
0.05	10.607
0.06	10.6139
0.07	10.6037
0.08	10.5942
0.09	10.6458
0.1	10.6471
0.11	10.6613
0.12	10.6461
0.13	10.6491
0.14	10.6511
0.15	10.6359
0.16	10.6415
0.17	10.653
0.18	10.6096
0.19	10.6366
0.2	10.6586
0.21	10.6142
0.22	10.6169
0.23	10.5639
0.24	10.5974
0.25	10.6034
0.26	10.603
0.27	10.5909
0.28	10.5978
0.29	10.6192
0.3	10.6376
0.31	10.5896
0.32	10.5928
0.33	10.5655
0.34	10.554
0.35	10.5603
0.36	10.5448
0.37	10.5537
0.38	10.5715
0.39	10.5474
0.4	10.533
0.41	10.5491
0.42	10.5323
0.43	10.5277
0.44	10.4876
0.45	10.5122
0.46	10.4997
0.47	10.4928
0.48	10.5218
0.49	10.4997
0.5	10.4757
0.51	10.4501
0.52	10.504
0.53	10.4879
0.54	10.4238
0.55	10.4317
0.56	10.4442
0.57	10.3955
0.58	10.429
0.59	10.4139
0.6	10.3965
0.61	10.38
0.62	10.3886
0.63	10.3442
0.64	10.3655
0.65	10.377
0.66	10.3435
0.67	10.3741
0.68	10.3764
0.69	10.3297
0.7	10.3247
0.71	10.3192
0.72	10.3563
0.73	10.3106
0.74	10.3037
0.75	10.3047
0.76	10.306
0.77	10.3165
0.78	10.2869
0.79	10.2777
0.8	10.2606
0.81	10.2399
0.82	10.2603
0.83	10.2688
0.84	10.2471
0.85	10.2284
0.86	10.2451
0.87	10.2221
0.88	10.2238
0.89	10.2238
0.9	10.1968
0.91	10.1715
0.92	10.1652
0.93	10.1899
0.94	10.1741
0.95	10.1645
0.96	10.1833
0.97	10.1609
0.98	10.1511
0.99	10.1395
1	10.1497
1.01	10.1277
1.02	10.1178
1.03	10.0889
1.04	10.1007
1.05	10.1122
1.06	10.103
1.07	10.0978
1.08	10.0971
1.09	10.0912
1.1	10.0691
1.11	10.0629
1.12	10.0096
1.13	10.0445
1.14	10.0566
1.15	10.0576
1.16	10.028
1.17	10.0155
1.18	10.002
1.19	10.009
1.2	10.0136
1.21	10.0185
1.22	9.99415
1.23	9.97178
1.24	9.95237
1.25	10.0066
1.26	9.96224
1.27	9.96027
1.28	9.96684
1.29	9.94941
1.3	9.93724
1.31	9.92704
1.32	9.92934
1.33	9.9175
1.34	9.90829
1.35	9.92244
1.36	9.87836
1.37	9.84151
1.38	9.88296
1.39	9.85928
1.4	9.87737
1.41	9.88987
1.42	9.85467
1.43	9.84283
1.44	9.83987
1.45	9.86717
1.46	9.8504
1.47	9.82112
1.48	9.81586
1.49	9.81586
1.5	9.80467
1.51	9.805
1.52	9.81947
1.53	9.80895
1.54	9.79579
1.55	9.77572
1.56	9.7823
1.57	9.77408
1.58	9.7471
1.59	9.7698
1.6	9.75566
1.61	9.7073
1.62	9.71388
1.63	9.73263
1.64	9.70927
1.65	9.72605
1.66	9.69217
1.67	9.7027
1.68	9.68526
1.69	9.71223
1.7	9.68033
1.71	9.66092
1.72	9.65796
1.73	9.6698
1.74	9.65335
1.75	9.64743
1.76	9.63065
1.77	9.62177
1.78	9.62013
1.79	9.61223
1.8	9.60565
1.81	9.62144
1.82	9.5869
1.83	9.57177
1.84	9.56125
1.85	9.59908
1.86	9.57243
1.87	9.5869
1.88	9.56388
1.89	9.55565
1.9	9.51749
1.91	9.54907
1.92	9.52605
1.93	9.53822
1.94	9.5323
1.95	9.47473
1.96	9.45466
1.97	9.46124
1.98	9.48855
1.99	9.47177
2	9.45631
2.01	9.4721
2.02	9.47473
2.03	9.47999
2.04	9.43559
2.05	9.4642
2.06	9.46223
2.07	9.44282
2.08	9.44874
2.09	9.44414
2.1	9.40598
2.11	9.38756
2.12	9.37012
2.13	9.38822
2.14	9.37407
2.15	9.36979
2.16	9.39282
2.17	9.37604
2.18	9.36618
2.19	9.35894
2.2	9.33723
2.21	9.33789
2.22	9.32308
2.23	9.33756
2.24	9.3346
2.25	9.31289
2.26	9.31519
2.27	9.29117
2.28	9.27703
2.29	9.30203
2.3	9.26815
2.31	9.26354
2.32	9.26617
2.33	9.28624
2.34	9.27275
2.35	9.26716
2.36	9.24644
2.37	9.22637
2.38	9.22242
2.39	9.20663
2.4	9.22473
2.41	9.24019
2.42	9.20598
2.43	9.2165
2.44	9.22802
2.45	9.19117
2.46	9.1642
2.47	9.16124
2.48	9.14808
2.49	9.16321
2.5	9.18065
2.51	9.14413
2.52	9.13163
2.53	9.10301
2.54	9.11518
2.55	9.15696
2.56	9.11058
2.57	9.08525
2.58	9.08591
2.59	9.10762
2.6	9.07999
2.61	9.0461
2.62	9.07505
2.63	9.06814
2.64	9.04676
2.65	9.05696
2.66	9.04939
2.67	9.05005
2.68	9.05005
2.69	9.0642
2.7	9.03393
2.71	9.00696
2.72	9.00038
2.73	9.00466
2.74	9.00301
2.75	8.98229
2.76	8.98623
2.77	9.01156
2.78	8.98591
2.79	8.94939
2.8	8.95202
2.81	8.95202
2.82	8.9734
2.83	8.99084
2.84	8.98229
2.85	8.96683
2.86	8.95071
2.87	8.93196
2.88	8.9359
2.89	8.93656
2.9	8.9188
2.91	8.91518
2.92	8.89906
2.93	8.87735
2.94	8.8938
2.95	8.88294
2.96	8.84774
2.97	8.85268
2.98	8.83064
2.99	8.83426
3	8.82867
3.01	8.84709
3.02	8.81353
3.03	8.84939
3.04	8.88163
3.05	8.84347
3.06	8.82044
3.07	8.81222
3.08	8.8484
3.09	8.76255
3.1	8.76715
3.11	8.76189
3.12	8.75958
3.13	8.72801
3.14	8.75268
3.15	8.75366
3.16	8.74511
3.17	8.73228
3.18	8.71814
3.19	8.72011
3.2	8.71649
3.21	8.72143
3.22	8.71452
3.23	8.68919
3.24	8.69708
3.25	8.62504
3.26	8.67537
3.27	8.69972
3.28	8.67142
3.29	8.69182
3.3	8.66452
3.31	8.63853
3.32	8.65958
3.33	8.67044
3.34	8.65761
3.35	8.64281
3.36	8.63754
3.37	8.61156
3.38	8.58721
3.39	8.62208
3.4	8.64116
3.41	8.64445
3.42	8.61254
3.43	8.61715
3.44	8.55004
3.45	8.59577
3.46	8.5803
3.47	8.53951
3.48	8.5609
3.49	8.56484
3.5	8.55925
3.51	8.56484
3.52	8.5734
3.53	8.55498
3.54	8.55859
3.55	8.53557
3.56	8.51188
3.57	8.51682
3.58	8.50333
3.59	8.50267
3.6	8.51912
3.61	8.51451
3.62	8.49379
3.63	8.503
3.64	8.49214
3.65	8.45103
3.66	8.4757
3.67	8.46813
3.68	8.45431
3.69	8.39675
3.7	8.43096
3.71	8.43293
3.72	8.46188
3.73	8.45464
3.74	8.42274
3.75	8.43359
3.76	8.42899
3.77	8.3905
3.78	8.4155
3.79	8.40892
3.8	8.37997
3.81	8.37866
3.82	8.39576
3.83	8.34806
3.84	8.32273
3.85	8.34675
3.86	8.35398
3.87	8.36122
3.88	8.37076
3.89	8.37076
3.9	8.3655
3.91	8.353
3.92	8.32668
3.93	8.30661
3.94	8.31286
3.95	8.31879
3.96	8.3303
3.97	8.31911
3.98	8.2724
3.99	8.30004
4	8.28392
4.01	8.30661
4.02	8.29346
4.03	8.27043
4.04	8.27339
4.05	8.24181
4.06	8.25563
4.07	8.24839
4.08	8.24214
4.09	8.23128
4.1	8.23655
4.11	8.25299
4.12	8.2553
4.13	8.22602
4.14	8.22339
4.15	8.22767
4.16	8.20859
4.17	8.18687
4.18	8.17733
4.19	8.20563
4.2	8.1872
4.21	8.19543
4.22	8.19609
4.23	8.17536
4.24	8.16845
4.25	8.1622
4.26	8.1724
4.27	8.14707
4.28	8.14839
4.29	8.12207
4.3	8.12832
4.31	8.15233
4.32	8.13391
4.33	8.1076
4.34	8.12536
4.35	8.11812
4.36	8.07931
4.37	8.11023
4.38	8.12372
4.39	8.10891
4.4	8.07569
4.41	8.05957
4.42	8.10003
4.43	8.0951
4.44	8.07108
4.45	8.04674
4.46	8.06516
4.47	8.077
4.48	8.06977
4.49	8.07667
4.5	8.04477
4.51	8.04411
4.52	8.04904
4.53	8.01483
4.54	7.9997
4.55	8.00398
4.56	8.03523
4.57	8.00792
4.58	7.98687
4.59	7.97996
4.6	7.98424
4.61	8.01648
4.62	7.97305
4.63	8.00398
4.64	8.02009
4.65	7.95299
4.66	7.9668
4.67	7.952
4.68	7.96022
4.69	7.96055
4.7	7.95858
4.71	7.94246
4.72	7.9372
4.73	7.92338
4.74	7.93588
4.75	7.95759
4.76	7.93687
4.77	7.93654
4.78	7.92667
4.79	7.90792
4.8	7.91121
4.81	7.87437
4.82	7.89575
4.83	7.8895
4.84	7.8997
4.85	7.8691
4.86	7.8691
4.87	7.87042
4.88	7.86318
4.89	7.86779
4.9	7.85266
4.91	7.87305
4.92	7.84641
4.93	7.83851
4.94	7.84443
4.95	7.87503
4.96	7.83095
4.97	7.84312
4.98	7.83259
4.99	7.802
5	7.80693
5.01	7.82766
5.02	7.81088
5.03	7.80035
5.04	7.82141
5.05	7.78588
5.06	7.78489
5.07	7.77502
5.08	7.79838
5.09	7.78818
5.1	7.76186
5.11	7.79608
5.12	7.79706
5.13	7.74772
5.14	7.71088
5.15	7.76384
5.16	7.74575
5.17	7.75792
5.18	7.73686
5.19	7.73028
5.2	7.71055
5.21	7.73654
5.22	7.72667
5.23	7.72239
5.24	7.7089
5.25	7.73094
5.26	7.71121
5.27	7.6816
5.28	7.68193
5.29	7.69048
5.3	7.6793
5.31	7.69114
5.32	7.68785
5.33	7.66943
5.34	7.69739
5.35	7.66745
5.36	7.66055
5.37	7.65331
5.38	7.66811
5.39	7.70002
5.4	7.64081
5.41	7.6066
5.42	7.6237
5.43	7.63818
5.44	7.63324
5.45	7.63127
5.46	7.61745
5.47	7.62568
5.48	7.59311
5.49	7.59739
5.5	7.58357
5.51	7.60331
5.52	7.60265
5.53	7.60364
5.54	7.60561
5.55	7.58522
5.56	7.56285
5.57	7.59015
5.58	7.57403
5.59	7.57403
5.6	7.54804
5.61	7.55035
5.62	7.5441
5.63	7.54475
5.64	7.57633
5.65	7.5385
5.66	7.54443
5.67	7.5362
5.68	7.53357
5.69	7.54574
5.7	7.52469
5.71	7.5191
5.72	7.5135
5.73	7.51317
5.74	7.51942
5.75	7.47534
5.76	7.47304
5.77	7.48883
5.78	7.54146
5.79	7.53192
5.8	7.49936
5.81	7.48357
5.82	7.49936
5.83	7.48686
5.84	7.44673
5.85	7.46284
5.86	7.4362
5.87	7.46186
5.88	7.45594
5.89	7.48949
5.9	7.45824
5.91	7.44113
5.92	7.4464
5.93	7.44574
5.94	7.4283
5.95	7.42205
5.96	7.42929
5.97	7.4237
5.98	7.4283
5.99	7.43258
6	7.43357
6.01	7.39837
6.02	7.41778
6.03	7.40791
6.04	7.40593
6.05	7.40758
6.06	7.38061
6.07	7.40495
6.08	7.40166
6.09	7.37501
6.1	7.38028
6.11	7.39475
6.12	7.36876
6.13	7.37699
6.14	7.35955
6.15	7.35067
6.16	7.33718
6.17	7.37337
6.18	7.3556
6.19	7.34376
6.2	7.32731
6.21	7.34442
6.22	7.35528
6.23	7.33718
6.24	7.34508
6.25	7.33653
6.26	7.33554
6.27	7.33159
6.28	7.36712
6.29	7.33093
6.3	7.29245
6.31	7.31777
6.32	7.34343
6.33	7.33356
6.34	7.35166
6.35	7.32139
6.36	7.27106
6.37	7.27139
6.38	7.29277
6.39	7.3033
6.4	7.3158
6.41	7.28389
6.42	7.29113
6.43	7.27666
6.44	7.27271
6.45	7.25133
6.46	7.27896
6.47	7.27633
6.48	7.27731
6.49	7.25626
6.5	7.25922
6.51	7.22632
6.52	7.23159
6.53	7.23521
6.54	7.24343
6.55	7.226
6.56	7.21448
6.57	7.21843
6.58	7.21777
6.59	7.22402
6.6	7.20757
6.61	7.23323
6.62	7.22764
6.63	7.19244
6.64	7.20626
6.65	7.18126
6.66	7.21448
6.67	7.20363
6.68	7.18323
6.69	7.21119
6.7	7.21415
6.71	7.18915
6.72	7.19935
6.73	7.19014
6.74	7.15494
6.75	7.18553
6.76	7.1931
6.77	7.14738
6.78	7.13586
6.79	7.14343
6.8	7.16284
6.81	7.16086
6.82	7.12172
6.83	7.14047
6.84	7.13257
6.85	7.13323
6.86	7.13685
6.87	7.12665
6.88	7.14869
6.89	7.16251
6.9	7.13816
6.91	7.13323
6.92	7.13488
6.93	7.1352
6.94	7.13126
6.95	7.11251
6.96	7.1079
6.97	7.09408
6.98	7.09935
6.99	7.13224
7	7.13882
7.01	7.12501
7.02	7.10297
7.03	7.1158
7.04	7.09705
7.05	7.07007
7.06	7.07928
7.07	7.07106
7.08	7.08849
7.09	7.10099
7.1	7.06547
7.11	7.08553
7.12	7.05724
7.13	7.07797
7.14	7.07928
7.15	7.08093
7.16	7.05724
7.17	7.04507
7.18	7.05264
7.19	7.06382
7.2	7.05757
7.21	7.02731
7.22	7.01481
7.23	7.05165
7.24	7.02731
7.25	7.01875
7.26	7.01382
7.27	7.05527
7.28	7.04112
7.29	7.01283
7.3	6.9931
7.31	6.99869
7.32	7.00625
7.33	7.03685
7.34	7.02007
7.35	7.02336
7.36	7.02171
7.37	7.00823
7.38	6.9977
7.39	7.01217
7.4	7.01645
7.41	6.98454
7.42	6.98323
7.43	6.97763
7.44	6.98586
7.45	6.96645
7.46	6.98388
7.47	6.97862
7.48	6.97698
7.49	6.95
7.5	6.97698
7.51	6.98323
7.52	6.96612
7.53	6.98684
7.54	6.98323
7.55	6.95954
7.56	6.94507
7.57	6.9454
7.58	6.94112
7.59	6.94013
7.6	6.93882
7.61	6.94803
7.62	6.93224
7.63	6.93783
7.64	6.92533
7.65	6.91776
7.66	6.94112
7.67	6.91974
7.68	6.9125
7.69	6.89868
7.7	6.92237
7.71	6.90855
7.72	6.91151
7.73	6.92994
7.74	6.89737
7.75	6.90428
7.76	6.87434
7.77	6.88553
7.78	6.89737
7.79	6.89737
7.8	6.90691
7.81	6.91316
7.82	6.89441
7.83	6.89474
7.84	6.87993
7.85	6.87467
7.86	6.87796
7.87	6.86546
7.88	6.86414
7.89	6.91086
7.9	6.89079
7.91	6.89013
7.92	6.85428
7.93	6.84375
7.94	6.85625
7.95	6.85428
7.96	6.84506
7.97	6.85
7.98	6.84145
7.99	6.84474
8	6.84835
8.01	6.8727
8.02	6.83158
8.03	6.84803
8.04	6.84046
8.05	6.8296
8.06	6.82401
8.07	6.83125
8.08	6.80592
8.09	6.84474
8.1	6.82039
8.11	6.80066
8.12	6.80164
8.13	6.84638
8.14	6.84474
8.15	6.82895
8.16	6.82763
8.17	6.79737
8.18	6.81908
8.19	6.81513
8.2	6.81316
8.21	6.7921
8.22	6.79375
8.23	6.76579
8.24	6.75921
8.25	6.81151
8.26	6.77434
8.27	6.77796
8.28	6.77335
8.29	6.7694
8.3	6.79605
8.31	6.75394
8.32	6.75362
8.33	6.75625
8.34	6.77269
8.35	6.77401
8.36	6.77204
8.37	6.77631
8.38	6.76217
8.39	6.80723
8.4	6.79013
8.41	6.71776
8.42	6.75033
8.43	6.74802
8.44	6.77072
8.45	6.73914
8.46	6.7296
8.47	6.74539
8.48	6.74605
8.49	6.75
8.5	6.7375
8.51	6.74046
8.52	6.76447
8.53	6.73454
8.54	6.74671
8.55	6.72861
8.56	6.7171
8.57	6.72763
8.58	6.7148
8.59	6.73585
8.6	6.74079
8.61	6.71381
8.62	6.7125
8.63	6.75
8.64	6.72171
8.65	6.73947
8.66	6.72138
8.67	6.69769
8.68	6.70822
8.69	6.71085
8.7	6.69934
8.71	6.67302
8.72	6.6796
8.73	6.69111
8.74	6.70723
8.75	6.68026
8.76	6.68453
8.77	6.70657
8.78	6.69375
8.79	6.66874
8.8	6.65131
8.81	6.66151
8.82	6.66447
8.83	6.68618
8.84	6.68157
8.85	6.66644
8.86	6.64736
8.87	6.67499
8.88	6.66381
8.89	6.6648
8.9	6.66348
8.91	6.6796
8.92	6.65559
8.93	6.63486
8.94	6.6467
8.95	6.6546
8.96	6.65986
8.97	6.66973
8.98	6.62269
8.99	6.65263
9	6.65065
9.01	6.62631
9.02	6.61545
9.03	6.67532
9.04	6.66776
9.05	6.64078
9.06	6.63552
9.07	6.62269
9.08	6.6092
9.09	6.63848
9.1	6.6296
9.11	6.63651
9.12	6.6467
9.13	6.64473
9.14	6.62565
9.15	6.62664
9.16	6.60197
9.17	6.6217
9.18	6.61644
9.19	6.62302
9.2	6.59835
9.21	6.61414
9.22	6.60723
9.23	6.59506
9.24	6.59835
9.25	6.60822
9.26	6.58354
9.27	6.5944
9.28	6.60591
9.29	6.59539
9.3	6.60723
9.31	6.60065
9.32	6.58815
9.33	6.59736
9.34	6.59999
9.35	6.5921
9.36	6.58026
9.37	6.59012
9.38	6.58914
9.39	6.56907
9.4	6.56677
9.41	6.56381
9.42	6.57335
9.43	6.56447
9.44	6.56808
9.45	6.56183
9.46	6.54473
9.47	6.55164
9.48	6.55131
9.49	6.55131
9.5	6.56512
9.51	6.57203
9.52	6.56052
9.53	6.59111
9.54	6.58157
9.55	6.549
9.56	6.57598
9.57	6.57137
9.58	6.56085
9.59	6.5194
9.6	6.51348
9.61	6.54308
9.62	6.5319
9.63	6.52729
9.64	6.56183
9.65	6.54802
9.66	6.52565
9.67	6.52302
9.68	6.5717
9.69	6.56512
9.7	6.54736
9.71	6.52631
9.72	6.50657
9.73	6.50196
9.74	6.51973
9.75	6.52598
9.76	6.51085
9.77	6.52006
9.78	6.51775
9.79	6.50854
9.8	6.52367
9.81	6.50756
9.82	6.49867
9.83	6.51117
9.84	6.52466
9.85	6.51085
9.86	6.51216
9.87	6.51117
9.88	6.49341
9.89	6.46512
9.9	6.51381
9.91	6.51578
9.92	6.50624
9.93	6.50065
9.94	6.48157
9.95	6.50887
9.96	6.51019
9.97	6.51578
9.98	6.49538
9.99	6.47894
10	6.48288
10.01	6.47992
10.02	6.47269
10.03	6.48913
10.04	6.48749
10.05	6.49275
10.06	6.48749
10.07	6.44933
10.08	6.45821
10.09	6.47894
10.1	6.49407
10.11	6.49999
10.12	6.47992
10.13	6.49111
10.14	6.48716
10.15	6.47762
10.16	6.44999
10.17	6.47269
10.18	6.46019
10.19	6.45262
10.2	6.46512
10.21	6.45986
10.22	6.45657
10.23	6.45196
10.24	6.43979
10.25	6.46545
10.26	6.45854
10.27	6.44242
10.28	6.43913
10.29	6.45065
10.3	6.4319
10.31	6.45492
10.32	6.45426
10.33	6.40262
10.34	6.45361
10.35	6.45032
10.36	6.43321
10.37	6.44571
10.38	6.43058
10.39	6.41972
10.4	6.43683
10.41	6.42992
10.42	6.41841
10.43	6.41775
10.44	6.374
10.45	6.42433
10.46	6.41545
10.47	6.44769
10.48	6.4444
10.49	6.43716
10.5	6.42992
10.51	6.39768
10.52	6.42203
10.53	6.43617
10.54	6.44703
10.55	6.40624
10.56	6.39933
10.57	6.41282
10.58	6.43617
10.59	6.40525
10.6	6.40163
10.61	6.39012
10.62	6.38387
10.63	6.40591
10.64	6.41051
10.65	6.42236
10.66	6.40032
10.67	6.38683
10.68	6.39933
10.69	6.39604
10.7	6.39637
10.71	6.40624
10.72	6.40262
10.73	6.40295
10.74	6.38485
10.75	6.40361
10.76	6.40624
10.77	6.39111
10.78	6.38124
10.79	6.38683
10.8	6.41709
10.81	6.41282
10.82	6.37564
10.83	6.38913
10.84	6.36972
10.85	6.35064
10.86	6.35262
10.87	6.38058
10.88	6.36018
10.89	6.33222
10.9	6.35689
10.91	6.39242
10.92	6.38321
10.93	6.36183
10.94	6.36446
10.95	6.38847
10.96	6.36117
10.97	6.35591
10.98	6.36775
10.99	6.37038
11	6.35295
11.01	6.37433
11.02	6.3536
11.03	6.38387
11.04	6.36084
11.05	6.38157
11.06	6.38091
11.07	6.33946
11.08	6.3865
11.09	6.38124
11.1	6.35755
11.11	6.3661
11.12	6.37137
11.13	6.34045
11.14	6.36775
11.15	6.37499
11.16	6.34999
11.17	6.36117
11.18	6.32762
11.19	6.32926
11.2	6.34341
11.21	6.32334
11.22	6.37334
11.23	6.35459
11.24	6.35097
11.25	6.35031
11.26	6.35393
11.27	6.36446
11.28	6.36446
11.29	6.32795
11.3	6.33716
11.31	6.31841
11.32	6.34999
11.33	6.3342
11.34	6.34867
11.35	6.3411
11.36	6.32137
11.37	6.34604
11.38	6.33716
11.39	6.32959
11.4	6.33189
11.41	6.33452
11.42	6.34275
11.43	6.31873
11.44	6.31643
11.45	6.31841
11.46	6.32202
11.47	6.3217
11.48	6.28683
11.49	6.30229
11.5	6.33025
11.51	6.3138
11.52	6.33814
11.53	6.33189
11.54	6.30459
11.55	6.33222
11.56	6.29439
11.57	6.30327
11.58	6.33452
11.59	6.33058
11.6	6.32466
11.61	6.35229
11.62	6.30196
11.63	6.3013
11.64	6.33354
11.65	6.28683
11.66	6.28781
11.67	6.29735
11.68	6.30821
11.69	6.30459
11.7	6.30459
11.71	6.29669
11.72	6.30887
11.73	6.29637
11.74	6.29834
11.75	6.28189
11.76	6.2809
11.77	6.27564
11.78	6.28946
11.79	6.28946
11.8	6.29077
11.81	6.29373
11.82	6.27992
11.83	6.28584
11.84	6.28452
11.85	6.29571
11.86	6.29669
11.87	6.27926
11.88	6.27663
11.89	6.29176
11.9	6.2684
11.91	6.25525
11.92	6.28419
11.93	6.29867
11.94	6.2888
11.95	6.2661
11.96	6.26084
11.97	6.25229
11.98	6.28123
11.99	6.29209
12	6.27465
12.01	6.27959
12.02	6.25261
12.03	6.27334
12.04	6.25656
12.05	6.26775
12.06	6.27334
12.07	6.28715
12.08	6.27762
12.09	6.25689
12.1	6.26479
12.11	6.27696
12.12	6.27498
12.13	6.27433
12.14	6.27202
12.15	6.23551
12.16	6.26742
12.17	6.26446
12.18	6.26084
12.19	6.25492
12.2	6.26314
12.21	6.29373
12.22	6.26808
12.23	6.24702
12.24	6.23814
12.25	6.23617
12.26	6.24538
12.27	6.2388
12.28	6.26215
12.29	6.25689
12.3	6.27433
12.31	6.2388
12.32	6.22794
12.33	6.23123
12.34	6.23748
12.35	6.22926
12.36	6.2411
12.37	6.22893
12.38	6.23288
12.39	6.22235
12.4	6.24044
12.41	6.26051
12.42	6.26413
12.43	6.25163
12.44	6.25722
12.45	6.24176
12.46	6.2513
12.47	6.26281
12.48	6.2138
12.49	6.21446
12.5	6.23913
12.51	6.21807
12.52	6.22071
12.53	6.23946
12.54	6.22893
12.55	6.23386
12.56	6.24275
12.57	6.23288
12.58	6.22334
12.59	6.23452
12.6	6.24702
12.61	6.22169
12.62	6.22367
12.63	6.20623
12.64	6.21577
12.65	6.20722
12.66	6.20327
12.67	6.20097
12.68	6.21281
12.69	6.22367
12.7	6.22794
12.71	6.23255
12.72	6.18649
12.73	6.20656
12.74	6.19505
12.75	6.23156
12.76	6.21643
12.77	6.24505
12.78	6.22465
12.79	6.21577
12.8	6.20031
12.81	6.23353
12.82	6.21643
12.83	6.22498
12.84	6.21248
12.85	6.2184
12.86	6.23057
12.87	6.18353
12.88	6.1888
12.89	6.20952
12.9	6.22334
12.91	6.20656
12.92	6.19538
12.93	6.2184
12.94	6.23025
12.95	6.2138
12.96	6.224
12.97	6.20919
12.98	6.20656
12.99	6.21215
13	6.19439
13.01	6.20064
13.02	6.19209
13.03	6.19899
13.04	6.21446
13.05	6.20985
13.06	6.2059
13.07	6.18452
13.08	6.17531
13.09	6.17564
13.1	6.21018
13.11	6.22334
13.12	6.20064
13.13	6.19472
13.14	6.19274
13.15	6.1888
13.16	6.17103
13.17	6.17893
13.18	6.20459
13.19	6.20163
13.2	6.19636
13.21	6.17893
13.22	6.20886
13.23	6.17597
13.24	6.17202
13.25	6.18617
13.26	6.16445
13.27	6.18255
13.28	6.19143
13.29	6.17136
13.3	6.17103
13.31	6.18649
13.32	6.19274
13.33	6.1934
13.34	6.17498
13.35	6.15656
13.36	6.17992
13.37	6.19603
13.38	6.1638
13.39	6.16774
13.4	6.17235
13.41	6.19439
13.42	6.20853
13.43	6.19044
13.44	6.2013
13.45	6.18123
13.46	6.17202
13.47	6.14998
13.48	6.17399
13.49	6.19735
13.5	6.1786
13.51	6.17301
13.52	6.17038
13.53	6.17663
13.54	6.15985
13.55	6.1786
13.56	6.17136
13.57	6.15031
13.58	6.1707
13.59	6.16149
13.6	6.17663
13.61	6.16051
13.62	6.14669
13.63	6.13682
13.64	6.14866
13.65	6.1559
13.66	6.14439
13.67	6.13518
13.68	6.14603
13.69	6.15623
13.7	6.1434
13.71	6.16478
13.72	6.17235
13.73	6.18288
13.74	6.17663
13.75	6.14241
13.76	6.15064
13.77	6.15031
13.78	6.13682
13.79	6.1684
13.8	6.15689
13.81	6.16873
13.82	6.16051
13.83	6.17597
13.84	6.15623
13.85	6.1707
13.86	6.16577
13.87	6.14636
13.88	6.17005
13.89	6.17202
13.9	6.15722
13.91	6.13748
13.92	6.14077
13.93	6.14965
13.94	6.16577
13.95	6.15459
13.96	6.1434
13.97	6.14472
13.98	6.14834
13.99	6.13748
14	6.13024
14.01	6.1411
14.02	6.11314
14.03	6.14669
14.04	6.13814
14.05	6.15689
14.06	6.16149
14.07	6.13649
14.08	6.13748
14.09	6.14505
14.1	6.14241
14.11	6.15524
14.12	6.16215
14.13	6.16347
14.14	6.12926
14.15	6.15393
14.16	6.1263
14.17	6.16741
14.18	6.14702
14.19	6.15097
14.2	6.17169
14.21	6.1661
14.22	6.15787
14.23	6.13485
14.24	6.14768
14.25	6.13748
14.26	6.14636
14.27	6.12169
14.28	6.13485
14.29	6.14669
14.3	6.10886
14.31	6.12794
14.32	6.14801
14.33	6.15228
14.34	6.11972
14.35	6.13057
14.36	6.12926
14.37	6.11544
14.38	6.11774
14.39	6.10064
14.4	6.12794
14.41	6.12991
14.42	6.1332
14.43	6.13255
14.44	6.12399
14.45	6.14241
14.46	6.11018
14.47	6.14011
14.48	6.14899
14.49	6.11577
14.5	6.13682
14.51	6.11511
14.52	6.12498
14.53	6.13156
14.54	6.11774
14.55	6.12662
14.56	6.13189
14.57	6.11873
14.58	6.11445
14.59	6.15195
14.6	6.10656
14.61	6.12136
14.62	6.14143
14.63	6.11873
14.64	6.11215
14.65	6.12991
14.66	6.11708
14.67	6.10623
14.68	6.11807
14.69	6.12827
14.7	6.10689
14.71	6.10754
14.72	6.10195
14.73	6.11215
14.74	6.11149
14.75	6.08748
14.76	6.11412
14.77	6.11972
14.78	6.10425
14.79	6.09077
14.8	6.09833
14.81	6.10722
14.82	6.12728
14.83	6.10787
14.84	6.12893
14.85	6.10458
14.86	6.12301
14.87	6.12399
14.88	6.12465
14.89	6.11018
14.9	6.11478
14.91	6.11643
14.92	6.12827
14.93	6.09373
14.94	6.09044
14.95	6.11676
14.96	6.10754
14.97	6.09537
14.98	6.08123
14.99	6.09044
15	6.09241
15.01	6.11182
15.02	6.13255
15.03	6.09768
15.04	6.12037
15.05	6.10853
15.06	6.09537
15.07	6.10656
15.08	6.13353
15.09	6.10623
15.1	6.12004
15.11	6.10294
15.12	6.07136
15.13	6.08978
15.14	6.12926
15.15	6.10491
15.16	6.08978
15.17	6.07498
15.18	6.09998
15.19	6.09241
15.2	6.09406
15.21	6.08912
15.22	6.12235
15.23	6.10919
15.24	6.09833
15.25	6.10623
15.26	6.0832
15.27	6.09866
15.28	6.09932
15.29	6.06379
15.3	6.10952
15.31	6.10393
15.32	6.07761
15.33	6.08221
15.34	6.07728
15.35	6.09208
15.36	6.13452
15.37	6.10557
15.38	6.0934
15.39	6.07893
15.4	6.06807
15.41	6.0934
15.42	6.06971
15.43	6.08978
15.44	6.07596
15.45	6.09011
15.46	6.08221
15.47	6.08912
15.48	6.07366
15.49	6.09143
15.5	6.0957
15.51	6.10162
15.52	6.06116
15.53	6.05689
15.54	6.06577
15.55	6.07235
15.56	6.07794
15.57	6.10031
15.58	6.09636
15.59	6.07465
15.6	6.09472
15.61	6.0605
15.62	6.09373
15.63	6.08847
15.64	6.07103
15.65	6.07136
15.66	6.06939
15.67	6.07596
15.68	6.05721
15.69	6.08419
15.7	6.06577
15.71	6.06774
15.72	6.07202
15.73	6.09899
15.74	6.09439
15.75	6.09833
15.76	6.08419
15.77	6.06511
15.78	6.09702
15.79	6.06248
15.8	6.04537
15.81	6.07268
15.82	6.05886
15.83	6.07333
15.84	6.05327
15.85	6.03452
15.86	6.08287
15.87	6.06083
15.88	6.0536
15.89	6.05689
15.9	6.05952
15.91	6.05886
15.92	6.05064
15.93	6.09373
15.94	6.04866
15.95	6.08156
15.96	6.0605
15.97	6.08616
15.98	6.06215
15.99	6.05392
16	6.06149
16.01	6.06511
16.02	6.08156
16.03	6.0934
16.04	6.05064
16.05	6.04899
16.06	6.0582
16.07	6.08353
16.08	6.06215
16.09	6.0684
16.1	6.05985
16.11	6.06346
16.12	6.06544
16.13	6.06149
16.14	6.04208
16.15	6.04998
16.16	6.05294
16.17	6.06675
16.18	6.05952
16.19	6.07169
16.2	6.05096
16.21	6.05853
16.22	6.07268
16.23	6.06182
16.24	6.07202
16.25	6.05392
16.26	6.03156
16.27	6.04833
16.28	6.07629
16.29	6.05096
16.3	6.0536
16.31	6.05129
16.32	6.05886
16.33	6.05721
16.34	6.04735
16.35	6.04537
16.36	6.07991
16.37	6.06906
16.38	6.06017
16.39	6.05689
16.4	6.08123
16.41	6.08978
16.42	6.05919
16.43	6.04899
16.44	6.06017
16.45	6.05195
16.46	6.06412
16.47	6.04899
16.48	6.05557
16.49	6.10393
16.5	6.07564
16.51	6.06083
16.52	6.04636
16.53	6.04636
16.54	6.04175
16.55	6.06478
16.56	6.04044
16.57	6.03221
16.58	6.04537
16.59	6.02892
16.6	6.04735
16.61	6.05064
16.62	6.06281
16.63	6.03583
16.64	6.03879
16.65	6.05623
16.66	6.04011
16.67	6.05458
16.68	6.07169
16.69	6.05031
16.7	6.02662
16.71	6.01478
16.72	6.02531
16.73	6.05261
16.74	6.06215
16.75	6.06116
16.76	6.03221
16.77	6.03485
16.78	6.04702
16.79	6.07794
16.8	6.06478
16.81	6.06544
16.82	6.02761
16.83	6.05524
16.84	6.04142
16.85	6.05162
16.86	6.05031
16.87	6.05952
16.88	6.03123
16.89	6.03846
16.9	6.03945
16.91	6.03912
16.92	6.01083
16.93	6.0309
16.94	6.06807
16.95	6.05985
16.96	6.05919
16.97	6.04767
16.98	6.0332
16.99	6.02432
17	6.03682
17.01	6.02695
17.02	6.01577
17.03	5.99767
17.04	6.0207
17.05	6.03287
17.06	6.02169
17.07	6.03188
17.08	6.04998
17.09	6.03715
17.1	5.99833
17.11	6.03221
17.12	6.03748
17.13	6.03517
17.14	6.01215
17.15	6.04537
17.16	6.04899
17.17	6.04208
17.18	6.03485
17.19	6.01182
17.2	6.02728
17.21	6.048
17.22	6.03123
17.23	6.0332
17.24	6.03879
17.25	6.01708
17.26	6.02629
17.27	6.04767
17.28	6.02563
17.29	6.03879
17.3	6.03057
17.31	6.01807
17.32	6.02794
17.33	6.02498
17.34	6.02432
17.35	6.03353
17.36	5.99603
17.37	5.98945
17.38	6.00425
17.39	6.00655
17.4	6.00228
17.41	6.02827
17.42	6.0457
17.43	6.023
17.44	6.02596
17.45	6.03188
17.46	6.02267
17.47	6.02662
17.48	5.99998
17.49	6.00787
17.5	6.01478
17.51	6.0411
17.52	6.02827
17.53	6.03879
17.54	6.01609
17.55	6.02958
17.56	5.99636
17.57	6.03583
17.58	6.03254
17.59	6.0309
17.6	6.0355
17.61	6.01313
17.62	6.00162
17.63	6.01511
17.64	6.01741
17.65	6.00721
17.66	6.01938
17.67	6.01938
17.68	6.02498
17.69	6.02366
17.7	6.048
17.71	6.01774
17.72	5.99405
17.73	6.01708
17.74	6.01675
17.75	6.03517
17.76	6.00491
17.77	6.02333
17.78	6.02103
17.79	6.01313
17.8	6.03221
17.81	6.02399
17.82	6.048
17.83	6.03945
17.84	6.00491
17.85	6.01938
17.86	6.03879
17.87	6.00787
17.88	6.03485
17.89	6.03485
17.9	6.02399
17.91	6.01609
17.92	6.03156
17.93	6.02366
17.94	6.01083
17.95	6.01906
17.96	5.99767
17.97	6.00688
17.98	5.99471
17.99	6.0003
18	6.02037
18.01	5.99932
18.02	5.98813
18.03	6.02234
18.04	6.01215
18.05	6.00524
18.06	5.99142
18.07	5.99504
18.08	6.00787
18.09	6.02761
18.1	6.00655
18.11	6.00162
18.12	6.02498
18.13	6.02202
18.14	6.00886
18.15	6.0105
18.16	5.99076
18.17	6.00458
18.18	5.99142
18.19	6.01281
18.2	5.98057
18.21	6.00754
18.22	6.00458
18.23	6.01017
18.24	5.998
18.25	5.99044
18.26	5.98451
18.27	5.98879
18.28	6.00195
18.29	5.99307
18.3	6.00919
18.31	6.03188
18.32	6.02827
18.33	6.00524
18.34	6.00228
18.35	6.00294
18.36	6.03254
18.37	6.01774
18.38	6.0082
18.39	5.98978
18.4	6.01577
18.41	6.00557
18.42	6.01215
18.43	6.00228
18.44	6.00327
18.45	6.01281
18.46	6.00623
18.47	6.00294
18.48	6.00524
18.49	6.00754
18.5	6.01149
18.51	5.9934
18.52	6.05754
18.53	6.02037
18.54	5.99636
18.55	6.00984
18.56	5.99833
18.57	5.96544
18.58	5.97103
18.59	5.99274
18.6	6.01313
18.61	5.98616
18.62	5.99636
18.63	5.99702
18.64	6.00919
18.65	6.01774
18.66	5.99373
18.67	6.00787
18.68	6.0003
18.69	6.03024
18.7	6.00853
18.71	5.97399
18.72	5.99175
18.73	5.99734
18.74	6.01675
18.75	5.99109
18.76	5.99767
18.77	5.99241
18.78	6.00886
18.79	5.99537
18.8	5.97695
18.81	5.99669
18.82	5.99142
18.83	6.00096
18.84	5.98945
18.85	5.99307
18.86	6.00294
18.87	6.0105
18.88	5.99175
18.89	6.02037
18.9	5.99767
18.91	5.99833
18.92	6.00458
18.93	5.97399
18.94	5.98254
18.95	5.9855
18.96	5.96412
18.97	5.9753
18.98	5.99011
18.99	5.98813
19	5.98188
19.01	5.99833
19.02	5.98451
19.03	5.98419
19.04	5.9753
19.05	5.98813
19.06	5.98024
19.07	5.97728
19.08	5.99866
19.09	5.99932
19.1	6.01938
19.11	6.01445
19.12	5.99537
19.13	6.00129
19.14	6.00524
19.15	6.00491
19.16	6.00524
19.17	5.98748
19.18	6.00294
19.19	5.97267
19.2	5.95655
19.21	6.00458
19.22	5.98715
19.23	5.98583
19.24	5.9855
19.25	5.99044
19.26	5.99044
19.27	6.00919
19.28	5.98484
19.29	5.97728
19.3	5.99636
19.31	5.9934
19.32	5.98353
19.33	6.01379
19.34	5.99208
19.35	5.99734
19.36	5.97333
19.37	5.96905
19.38	5.97761
19.39	5.9878
19.4	5.97728
19.41	5.96642
19.42	5.98254
19.43	5.95754
19.44	5.99109
19.45	5.98583
19.46	5.98419
19.47	5.98484
19.48	5.973
19.49	5.99175
19.5	5.99241
19.51	6.00327
19.52	5.99307
19.53	5.97794
19.54	5.99998
19.55	5.98024
19.56	5.98649
19.57	5.99636
19.58	5.99274
19.59	6.01609
19.6	5.9855
19.61	5.98386
19.62	5.97169
19.63	5.98188
19.64	5.9855
19.65	5.99833
19.66	5.97991
19.67	5.97399
19.68	5.96807
19.69	5.9809
19.7	5.99504
19.71	5.96872
19.72	5.98419
19.73	5.97794
19.74	5.97267
19.75	5.96609
19.76	5.99636
19.77	5.99044
19.78	5.98419
19.79	5.97037
19.8	5.97267
19.81	5.98978
19.82	5.97234
19.83	5.99998
19.84	5.98945
19.85	5.97826
19.86	5.96313
19.87	5.98912
19.88	5.96807
19.89	5.95721
19.9	5.97596
19.91	5.97136
19.92	5.97629
19.93	5.97267
19.94	5.98912
19.95	5.98254
19.96	5.99899
19.97	5.98978
19.98	5.97563
19.99	6.01971
20	5.99076
20.01	6.00162
20.02	5.97497
20.03	5.96247
20.04	5.98024
20.05	5.97004
20.06	5.99109
20.07	6.00228
20.08	5.97629
20.09	5.97695
20.1	5.98484
20.11	5.973
20.12	5.98188
20.13	5.99208
20.14	5.95984
20.15	5.96872
20.16	5.9809
20.17	6.00195
20.18	5.97563
20.19	5.97662
20.2	5.96576
20.21	5.94965
20.22	5.93912
20.23	5.96971
20.24	5.95721
20.25	5.9855
20.26	5.99076
20.27	5.99274
20.28	5.97892
20.29	5.97826
20.3	5.97596
20.31	5.96379
20.32	5.97761
20.33	5.99438
20.34	5.99142
20.35	5.97497
20.36	5.93649
20.37	5.96116
20.38	5.98649
20.39	5.96346
20.4	5.9434
20.41	5.973
20.42	5.98846
20.43	5.97201
20.44	5.95984
20.45	5.9503
20.46	5.96708
20.47	6.0003
20.48	5.97892
20.49	5.96905
20.5	5.96576
20.51	5.95392
20.52	5.97366
20.53	5.9605
20.54	5.96741
20.55	5.97563
20.56	5.96379
20.57	5.95129
20.58	5.96576
20.59	5.95886
20.6	5.93484
20.61	5.95228
20.62	5.97267
20.63	5.98715
20.64	5.96412
20.65	5.97728
20.66	5.95326
20.67	5.94372
20.68	5.94471
20.69	5.96445
20.7	5.95787
20.71	5.97399
20.72	5.95129
20.73	5.98188
20.74	5.97267
20.75	5.96412
20.76	5.96774
20.77	5.98024
20.78	5.94701
20.79	5.98813
20.8	5.97497
20.81	5.9878
20.82	5.96872
20.83	5.94965
20.84	5.95326
20.85	5.97366
20.86	5.94997
20.87	5.93912
20.88	5.96642
20.89	5.98287
20.9	5.97826
20.91	5.94997
20.92	5.94668
20.93	5.95919
20.94	5.95491
20.95	5.98616
20.96	5.98649
20.97	5.96642
20.98	5.96774
20.99	5.97399
21	5.9605
21.01	5.94997
21.02	5.93353
21.03	5.94603
21.04	5.96609
21.05	5.97169
21.06	5.9605
21.07	5.96445
21.08	5.96741
21.09	5.95458
21.1	5.91642
21.11	5.92991
21.12	5.95261
21.13	5.97432
21.14	5.93714
21.15	5.92596
21.16	5.94866
21.17	5.95919
21.18	5.95688
21.19	5.91839
21.2	5.948
21.21	5.96445
21.22	5.9684
21.23	5.98813
21.24	5.96675
21.25	5.94899
21.26	5.95622
21.27	5.94833
21.28	5.94668
21.29	5.94899
21.3	5.92464
21.31	5.94175
21.32	5.96149
21.33	5.95951
21.34	5.96872
21.35	5.95524
21.36	5.94997
21.37	5.9559
21.38	5.94405
21.39	5.95392
21.4	5.98484
21.41	5.96708
21.42	5.97267
21.43	5.95228
21.44	5.95228
21.45	5.95063
21.46	5.9684
21.47	5.95293
21.48	5.9559
21.49	5.97596
21.5	5.9753
21.51	5.98616
21.52	5.96807
21.53	5.93254
21.54	5.94899
21.55	5.95622
21.56	5.94603
21.57	5.92859
21.58	5.97267
21.59	5.97794
21.6	5.93747
21.61	5.93254
21.62	5.95491
21.63	5.94866
21.64	5.94076
21.65	5.96313
21.66	5.96675
21.67	5.95787
21.68	5.92629
21.69	5.95458
21.7	5.97103
21.71	5.96544
21.72	5.97826
21.73	5.95655
21.74	5.95425
21.75	5.94701
21.76	5.95919
21.77	5.96872
21.78	5.96116
21.79	5.95129
21.8	5.94603
21.81	5.93287
21.82	5.92958
21.83	5.94175
21.84	5.9378
21.85	5.94241
21.86	5.93846
21.87	5.95721
21.88	5.97169
21.89	5.9434
21.9	5.96379
21.91	5.93583
21.92	5.94175
21.93	5.96478
21.94	5.94504
21.95	5.95557
21.96	5.93945
21.97	5.95557
21.98	5.95919
21.99	5.93484
22	5.94833
22.01	5.95524
22.02	5.9605
22.03	5.9582
22.04	5.9628
22.05	5.94899
22.06	5.94109
22.07	5.93649
22.08	5.95425
22.09	5.94965
22.1	5.95326
22.11	5.97267
22.12	5.98287
22.13	5.96807
22.14	5.96971
22.15	5.96642
22.16	5.97432
22.17	5.94109
22.18	5.96412
22.19	5.95984
22.2	5.94504
22.21	5.93024
22.22	5.93879
22.23	5.93188
22.24	5.93155
22.25	5.94043
22.26	5.93945
22.27	5.94438
22.28	5.94208
22.29	5.94997
22.3	5.93714
22.31	5.94208
22.32	5.9559
22.33	5.94866
22.34	5.96971
22.35	5.95458
22.36	5.92728
22.37	5.94636
22.38	5.95425
22.39	5.9605
22.4	5.95326
22.41	5.9378
22.42	5.9582
22.43	5.95787
22.44	5.93978
22.45	5.94471
22.46	5.95984
22.47	5.94767
22.48	5.94701
22.49	5.98123
22.5	5.97728
22.51	5.95063
22.52	5.93188
22.53	5.93024
22.54	5.94307
22.55	5.94701
22.56	5.94833
22.57	5.94734
22.58	5.95557
22.59	5.94537
22.6	5.96215
22.61	5.95293
22.62	5.92234
22.63	5.96346
22.64	5.97366
22.65	5.95688
22.66	5.93057
22.67	5.95392
22.68	5.94438
22.69	5.96445
22.7	5.95392
22.71	5.94932
22.72	5.95096
22.73	5.95721
22.74	5.94405
22.75	5.95096
22.76	5.93714
22.77	5.92662
22.78	5.95721
22.79	5.9605
22.8	5.94603
22.81	5.93846
22.82	5.92004
22.83	5.94504
22.84	5.93418
22.85	5.94734
22.86	5.91445
22.87	5.91807
22.88	5.96445
22.89	5.95655
22.9	5.92366
22.91	5.96774
22.92	5.94471
22.93	5.92267
22.94	5.93155
22.95	5.91872
22.96	5.93583
22.97	5.94405
22.98	5.91478
22.99	5.92596
23	5.92892
23.01	5.94372
23.02	5.94109
23.03	5.92892
23.04	5.92958
23.05	5.92399
23.06	5.93188
23.07	5.94011
23.08	5.93583
23.09	5.94109
23.1	5.95491
23.11	5.94734
23.12	5.92333
23.13	5.93978
23.14	5.93978
23.15	5.94833
23.16	5.9378
23.17	5.93517
23.18	5.92793
23.19	5.93583
23.2	5.93353
23.21	5.90425
23.22	5.94372
23.23	5.95491
23.24	5.96412
23.25	5.93846
23.26	5.93945
23.27	5.93155
23.28	5.95853
23.29	5.92629
23.3	5.9378
23.31	5.92464
23.32	5.93122
23.33	5.92925
23.34	5.9082
23.35	5.91741
23.36	5.94997
23.37	5.95162
23.38	5.93122
23.39	5.93945
23.4	5.95063
23.41	5.93649
23.42	5.92136
23.43	5.9003
23.44	5.93254
23.45	5.9378
23.46	5.9332
23.47	5.91576
23.48	5.95293
23.49	5.93451
23.5	5.93945
23.51	5.93353
23.52	5.9128
23.53	5.93353
23.54	5.9207
23.55	5.94965
23.56	5.95261
23.57	5.94274
23.58	5.93714
23.59	5.90589
23.6	5.92991
23.61	5.96247
23.62	5.94997
23.63	5.93418
23.64	5.91708
23.65	5.89635
23.66	5.93287
23.67	5.94076
23.68	5.94307
23.69	5.94043
23.7	5.97267
23.71	5.94767
23.72	5.94076
23.73	5.93978
23.74	5.90622
23.75	5.91412
23.76	5.92399
23.77	5.91839
23.78	5.93254
23.79	5.92464
23.8	5.92629
23.81	5.92859
23.82	5.9434
23.83	5.95754
23.84	5.90491
23.85	5.93155
23.86	5.92464
23.87	5.94603
23.88	5.92629
23.89	5.93945
23.9	5.95293
23.91	5.93912
23.92	5.93714
23.93	5.94307
23.94	5.93649
23.95	5.9253
23.96	5.91839
23.97	5.92432
23.98	5.91478
23.99	5.92826
24	5.94372
24.01	5.91247
24.02	5.91149
24.03	5.92234
24.04	5.92728
24.05	5.92201
24.06	5.90589
24.07	5.90491
24.08	5.91971
24.09	5.92596
24.1	5.92136
24.11	5.91116
24.12	5.9128
24.13	5.92037
24.14	5.92366
24.15	5.93353
24.16	5.94274
24.17	5.93188
24.18	5.91905
24.19	5.94372
24.2	5.92925
24.21	5.92925
24.22	5.92333
24.23	5.91379
24.24	5.92793
24.25	5.94043
24.26	5.91839
24.27	5.92728
24.28	5.91445
24.29	5.91576
24.3	5.92432
24.31	5.94866
24.32	5.94307
24.33	5.9207
24.34	5.92267
24.35	5.95228
24.36	5.94175
24.37	5.9332
24.38	5.90524
24.39	5.92662
24.4	5.94109
24.41	5.93451
24.42	5.93418
24.43	5.91642
24.44	5.92333
24.45	5.91609
24.46	5.93122
24.47	5.94504
24.48	5.9355
24.49	5.93813
24.5	5.90293
24.51	5.92761
24.52	5.93254
24.53	5.92859
24.54	5.92103
24.55	5.90688
24.56	5.91609
24.57	5.92497
24.58	5.90524
24.59	5.91478
24.6	5.91642
24.61	5.95129
24.62	5.96938
24.63	5.95655
24.64	5.95359
24.65	5.92399
24.66	5.91379
24.67	5.89866
24.68	5.91675
24.69	5.94504
24.7	5.95261
24.71	5.93089
24.72	5.93122
24.73	5.94734
24.74	5.91872
24.75	5.93057
24.76	5.93517
24.77	5.93089
24.78	5.94307
24.79	5.91214
24.8	5.91642
24.81	5.93057
24.82	5.93353
24.83	5.93978
24.84	5.92859
24.85	5.94076
24.86	5.94011
24.87	5.95919
24.88	5.91708
24.89	5.88846
24.9	5.90754
24.91	5.91774
24.92	5.9026
24.93	5.94866
24.94	5.9628
24.95	5.91774
24.96	5.91774
24.97	5.91576
24.98	5.91017
24.99	5.94109
25	5.94636
25.01	5.93386
25.02	5.92037
25.03	5.9332
25.04	5.92234
25.05	5.91149
25.06	5.91872
25.07	5.90063
25.08	5.90754
25.09	5.94142
25.1	5.93747
25.11	5.92037
25.12	5.91807
25.13	5.91412
25.14	5.91905
25.15	5.91576
25.16	5.92333
25.17	5.923
25.18	5.90787
25.19	5.90589
25.2	5.93978
25.21	5.93254
25.22	5.90491
25.23	5.91478
25.24	5.91971
25.25	5.92136
25.26	5.92464
25.27	5.92037
25.28	5.90359
25.29	5.92136
25.3	5.94504
25.31	5.94043
25.32	5.94274
25.33	5.94208
25.34	5.95458
25.35	5.91609
25.36	5.95557
25.37	5.95491
25.38	5.93517
25.39	5.91642
25.4	5.90557
25.41	5.92333
25.42	5.91576
25.43	5.90622
25.44	5.91478
25.45	5.88912
25.46	5.88188
25.47	5.9253
25.48	5.93418
25.49	5.92958
25.5	5.92464
25.51	5.93188
25.52	5.93682
25.53	5.94109
25.54	5.91708
25.55	5.92563
25.56	5.90392
25.57	5.88879
25.58	5.89471
25.59	5.9253
25.6	5.91346
25.61	5.90557
25.62	5.87399
25.63	5.898
25.64	5.90589
25.65	5.91938
25.66	5.90228
25.67	5.90162
25.68	5.90984
25.69	5.90195
25.7	5.91214
25.71	5.90425
25.72	5.8957
25.73	5.90195
25.74	5.89931
25.75	5.90787
25.76	5.9003
25.77	5.92004
25.78	5.92925
25.79	5.9378
25.8	5.93089
25.81	5.92004
25.82	5.9128
25.83	5.91839
25.84	5.91478
25.85	5.90885
25.86	5.90787
25.87	5.90721
25.88	5.93714
25.89	5.91839
25.9	5.94076
25.91	5.89997
25.92	5.90491
25.93	5.89504
25.94	5.91313
25.95	5.90524
25.96	5.89997
25.97	5.91182
25.98	5.89504
25.99	5.89142
26	5.89701
26.01	5.89964
26.02	5.89109
26.03	5.87826
26.04	5.88451
26.05	5.90326
26.06	5.89931
26.07	5.88714
26.08	5.90589
26.09	5.90688
26.1	5.89964
26.11	5.90491
26.12	5.90491
26.13	5.91214
26.14	5.88583
26.15	5.88945
26.16	5.89668
26.17	5.88122
26.18	5.90688
26.19	5.9026
26.2	5.90195
26.21	5.9253
26.22	5.90326
26.23	5.89603
26.24	5.92859
26.25	5.91938
26.26	5.90326
26.27	5.90195
26.28	5.90129
26.29	5.91609
26.3	5.8957
26.31	5.9003
26.32	5.92004
26.33	5.91149
26.34	5.91445
26.35	5.91182
26.36	5.8901
26.37	5.90326
26.38	5.91116
26.39	5.92234
26.4	5.93649
26.41	5.92267
26.42	5.9128
26.43	5.90063
26.44	5.90622
26.45	5.91576
26.46	5.90129
26.47	5.87431
26.48	5.90754
26.49	5.91642
26.5	5.92892
26.51	5.86642
26.52	5.87629
26.53	5.9105
26.54	5.89866
26.55	5.91346
26.56	5.89537
26.57	5.89635
26.58	5.9151
26.59	5.92103
26.6	5.92497
26.61	5.90787
26.62	5.91379
26.63	5.90754
26.64	5.92432
26.65	5.89997
26.66	5.88813
26.67	5.88747
26.68	5.90425
26.69	5.923
26.7	5.92234
26.71	5.89603
26.72	5.90589
26.73	5.89471
26.74	5.89471
26.75	5.8957
26.76	5.92464
26.77	5.90557
26.78	5.89997
26.79	5.88912
26.8	5.91149
26.81	5.8957
26.82	5.93254
26.83	5.89635
26.84	5.89175
26.85	5.91214
26.86	5.85951
26.87	5.89537
26.88	5.89997
26.89	5.9105
26.9	5.92399
26.91	5.91905
26.92	5.90853
26.93	5.91116
26.94	5.8901
26.95	5.91839
26.96	5.91543
26.97	5.898
26.98	5.8957
26.99	5.9151
27	5.90721
27.01	5.898
27.02	5.92267
27.03	5.90754
27.04	5.8957
27.05	5.87267
27.06	5.89306
27.07	5.88352
27.08	5.898
27.09	5.90951
27.1	5.90984
27.11	5.898
27.12	5.89076
27.13	5.89866
27.14	5.92136
27.15	5.90458
27.16	5.89635
27.17	5.89109
27.18	5.89537
27.19	5.92136
27.2	5.89635
27.21	5.88484
27.22	5.89964
27.23	5.90458
27.24	5.91379
27.25	5.87563
27.26	5.91379
27.27	5.88451
27.28	5.88155
27.29	5.8855
27.3	5.90228
27.31	5.90293
27.32	5.89274
27.33	5.88352
27.34	5.89043
27.35	5.88912
27.36	5.89537
27.37	5.87201
27.38	5.89109
27.39	5.89931
27.4	5.92859
27.41	5.88089
27.42	5.9151
27.43	5.8855
27.44	5.88912
27.45	5.90195
27.46	5.89668
27.47	5.88484
27.48	5.89635
27.49	5.88517
27.5	5.89043
27.51	5.89701
27.52	5.9003
27.53	5.90951
27.54	5.89734
27.55	5.91774
27.56	5.8957
27.57	5.91807
27.58	5.89701
27.59	5.9128
27.6	5.92793
27.61	5.90129
27.62	5.9003
27.63	5.88912
27.64	5.90688
27.65	5.90557
27.66	5.89964
27.67	5.89175
27.68	5.86708
27.69	5.90359
27.7	5.8878
27.71	5.88846
27.72	5.89997
27.73	5.90425
27.74	5.90458
27.75	5.89306
27.76	5.91083
27.77	5.90326
27.78	5.91017
27.79	5.89931
27.8	5.898
27.81	5.90096
27.82	5.89997
27.83	5.87892
27.84	5.91182
27.85	5.88089
27.86	5.88221
27.87	5.88254
27.88	5.87826
27.89	5.88649
27.9	5.8957
27.91	5.90326
27.92	5.89767
27.93	5.90524
27.94	5.90557
27.95	5.85951
27.96	5.85885
27.97	5.91445
27.98	5.88681
27.99	5.90853
28	5.88616
28.01	5.90721
28.02	5.91971
28.03	5.89142
28.04	5.90162
28.05	5.90951
28.06	5.87991
28.07	5.88352
28.08	5.89899
28.09	5.91741
28.1	5.9151
28.11	5.89142
28.12	5.90162
28.13	5.88254
28.14	5.91412
28.15	5.89537
28.16	5.88813
28.17	5.91182
28.18	5.88418
28.19	5.89076
28.2	5.89471
28.21	5.88583
28.22	5.90129
28.23	5.91445
28.24	5.89603
28.25	5.90425
28.26	5.89866
28.27	5.89241
28.28	5.90063
28.29	5.87037
28.3	5.87859
28.31	5.89701
28.32	5.90721
28.33	5.88122
28.34	5.86708
28.35	5.8957
28.36	5.8901
28.37	5.89701
28.38	5.90096
28.39	5.90063
28.4	5.90195
28.41	5.88287
28.42	5.90951
28.43	5.91149
28.44	5.89142
28.45	5.88451
28.46	5.89076
28.47	5.89438
28.48	5.89405
28.49	5.85458
28.5	5.89208
28.51	5.91149
28.52	5.8957
28.53	5.87991
28.54	5.89306
28.55	5.90557
28.56	5.90557
28.57	5.88978
28.58	5.90458
28.59	5.89405
28.6	5.89405
28.61	5.89668
28.62	5.90425
28.63	5.87629
28.64	5.87695
28.65	5.89767
28.66	5.90622
28.67	5.91182
28.68	5.88254
28.69	5.89274
28.7	5.89208
28.71	5.88089
28.72	5.91379
28.73	5.88616
28.74	5.87102
28.75	5.89372
28.76	5.90096
28.77	5.88879
28.78	5.8776
28.79	5.8901
28.8	5.89438
28.81	5.90293
28.82	5.89175
28.83	5.8776
28.84	5.87925
28.85	5.86905
28.86	5.88188
28.87	5.8832
28.88	5.90195
28.89	5.89274
28.9	5.89931
28.91	5.88517
28.92	5.86346
28.93	5.88418
28.94	5.91774
28.95	5.89175
28.96	5.87695
28.97	5.8776
28.98	5.88352
28.99	5.87892
29	5.87366
29.01	5.88024
29.02	5.87234
29.03	5.89076
29.04	5.89964
29.05	5.89767
29.06	5.87333
29.07	5.85655
29.08	5.87596
29.09	5.88912
29.1	5.8753
29.11	5.88484
29.12	5.8901
29.13	5.89635
29.14	5.88254
29.15	5.86971
29.16	5.88649
29.17	5.88583
29.18	5.87497
29.19	5.88254
29.2	5.8901
29.21	5.8878
29.22	5.89043
29.23	5.90392
29.24	5.89241
29.25	5.89767
29.26	5.87695
29.27	5.88714
29.28	5.87497
29.29	5.88583
29.3	5.90622
29.31	5.88846
29.32	5.87859
29.33	5.88418
29.34	5.89997
29.35	5.87366
29.36	5.88352
29.37	5.89142
29.38	5.89274
29.39	5.89964
29.4	5.88747
29.41	5.90951
29.42	5.87497
29.43	5.90853
29.44	5.90885
29.45	5.90688
29.46	5.88945
29.47	5.8855
29.48	5.898
29.49	5.89734
29.5	5.87201
29.51	5.89668
29.52	5.90918
29.53	5.87267
29.54	5.87695
29.55	5.89208
29.56	5.89208
29.57	5.86642
29.58	5.88089
29.59	5.90589
29.6	5.87366
29.61	5.89734
29.62	5.89076
29.63	5.89438
29.64	5.87201
29.65	5.86905
29.66	5.91182
29.67	5.8832
29.68	5.88287
29.69	5.87563
29.7	5.86905
29.71	5.89208
29.72	5.90458
29.73	5.87695
29.74	5.86642
29.75	5.87168
29.76	5.89603
29.77	5.88846
29.78	5.88221
29.79	5.86839
29.8	5.87037
29.81	5.89833
29.82	5.89668
29.83	5.86247
29.84	5.86806
29.85	5.89701
29.86	5.88649
29.87	5.87892
29.88	5.86379
29.89	5.84602
29.9	5.87727
29.91	5.88451
29.92	5.86379
29.93	5.86839
29.94	5.88978
29.95	5.87102
29.96	5.86872
29.97	5.86774
29.98	5.86872
29.99	5.86741
30	5.88649
