"BIO-KINE ASCII FILE"
"_COMMENT"	"MOS-500 Spectrometer"
"_COMMENT"	"Kinetics measurement"
"_COMMENT"	"Y Unit : Volt,  X Unit : s"
"_COMMENT"	"Excitation wavelength : 380 nm"
"_COMMENT"	"Fentes bandwidth =  1 nm"
"_COMMENT"	"HV= 1000V"
"_COMMENT"	"Timebase  1 =  .01 s   5001 pts"
"_SFM"	"SFM-400 /S  Advanced mode"
"_SFM"	"Ratio : S1: 2.5, S2: 0, S3: 0, S4: 1"
"_SFM"	"Content : S1: , S2: , S3: , S4:"
"_SFM"	"Concentration : S1: , S2: , S3: , S4:"
"_SFM"	"Total volume : 209 µl  Flow : 3.5 mL/s"
"_SFM"	"Acquisition start :  10 ms before stop"
"_SFM"	"cuve=FC-15, s1=10 ml , s2=10 ml , s3=10 ml , s4=1.9 ml"
"_UNITX"	"s"
"_UNITY"	"Volt"
"_DELTAX"	0
"_DATA"
1e-300	2.97357
0.01	2.941
0.02	2.96041
0.03	3.02225
0.04	3.06206
0.05	3.10219
0.06	3.18377
0.07	3.17259
0.08	3.18114
0.09	3.17423
0.1	3.16732
0.11	3.20384
0.12	3.18344
0.13	3.2012
0.14	3.2193
0.15	3.22226
0.16	3.19364
0.17	3.20844
0.18	3.20778
0.19	3.19857
0.2	3.22555
0.21	3.2216
0.22	3.20713
0.23	3.19693
0.24	3.25186
0.25	3.26239
0.26	3.20614
0.27	3.24627
0.28	3.23015
0.29	3.25647
0.3	3.24397
0.31	3.24002
0.32	3.23838
0.33	3.20976
0.34	3.23969
0.35	3.23443
0.36	3.2295
0.37	3.21469
0.38	3.22324
0.39	3.24594
0.4	3.22785
0.41	3.21338
0.42	3.21469
0.43	3.24002
0.44	3.22456
0.45	3.21667
0.46	3.23509
0.47	3.21634
0.48	3.24134
0.49	3.25482
0.5	3.21601
0.51	3.21469
0.52	3.22884
0.53	3.21732
0.54	3.2341
0.55	3.25581
0.56	3.23509
0.57	3.2068
0.58	3.26634
0.59	3.27292
0.6	3.24627
0.61	3.22884
0.62	3.22028
0.63	3.23114
0.64	3.2443
0.65	3.22193
0.66	3.2341
0.67	3.26338
0.68	3.23246
0.69	3.23311
0.7	3.23805
0.71	3.21732
0.72	3.20548
0.73	3.22292
0.74	3.20022
0.75	3.22982
0.76	3.23147
0.77	3.23081
0.78	3.19561
0.79	3.19759
0.8	3.17949
0.81	3.20285
0.82	3.2341
0.83	3.22094
0.84	3.22423
0.85	3.23377
0.86	3.20778
0.87	3.22588
0.88	3.17851
0.89	3.18245
0.9	3.19759
0.91	3.17226
0.92	3.16798
0.93	3.19298
0.94	3.20548
0.95	3.22785
0.96	3.20778
0.97	3.18443
0.98	3.18574
0.99	3.19824
1	3.19792
1.01	3.18245
1.02	3.17949
1.03	3.20811
1.04	3.21996
1.05	3.21831
1.06	3.20548
1.07	3.20844
1.08	3.21601
1.09	3.22522
1.1	3.1966
1.11	3.1818
1.12	3.17226
1.13	3.19923
1.14	3.21963
1.15	3.20548
1.16	3.19199
1.17	3.1966
1.18	3.21403
1.19	3.21272
1.2	3.18805
1.21	3.18509
1.22	3.20285
1.23	3.18048
1.24	3.18476
1.25	3.2193
1.26	3.17489
1.27	3.17949
1.28	3.19693
1.29	3.21009
1.3	3.21371
1.31	3.18903
1.32	3.18706
1.33	3.18048
1.34	3.19627
1.35	3.17489
1.36	3.18706
1.37	3.19824
1.38	3.19956
1.39	3.20186
1.4	3.22226
1.41	3.18706
1.42	3.1989
1.43	3.15416
1.44	3.19331
1.45	3.16666
1.46	3.14101
1.47	3.17291
1.48	3.18344
1.49	3.20778
1.5	3.18936
1.51	3.17884
1.52	3.20976
1.53	3.1943
1.54	3.22357
1.55	3.18114
1.56	3.17522
1.57	3.19726
1.58	3.19495
1.59	3.20055
1.6	3.19561
1.61	3.18574
1.62	3.19265
1.63	3.16765
1.64	3.17719
1.65	3.20318
1.66	3.18509
1.67	3.16732
1.68	3.18673
1.69	3.21173
1.7	3.18936
1.71	3.17785
1.72	3.17686
1.73	3.15351
1.74	3.18541
1.75	3.17982
1.76	3.17028
1.77	3.16272
1.78	3.17094
1.79	3.19265
1.8	3.18509
1.81	3.15712
1.82	3.14364
1.83	3.14989
1.84	3.17653
1.85	3.20153
1.86	3.21502
1.87	3.21436
1.88	3.19134
1.89	3.17884
1.9	3.15976
1.91	3.19693
1.92	3.14528
1.93	3.16436
1.94	3.14397
1.95	3.13969
1.96	3.1693
1.97	3.17291
1.98	3.15745
1.99	3.17982
2	3.16568
2.01	3.13147
2.02	3.17489
2.03	3.18476
2.04	3.15548
2.05	3.17818
2.06	3.17587
2.07	3.19101
2.08	3.18509
2.09	3.17785
2.1	3.18311
2.11	3.17982
2.12	3.19726
2.13	3.16074
2.14	3.14265
2.15	3.15976
2.16	3.18903
2.17	3.17851
2.18	3.1762
2.19	3.16041
2.2	3.17851
2.21	3.17357
2.22	3.18344
2.23	3.1716
2.24	3.15351
2.25	3.16502
2.26	3.15219
2.27	3.16206
2.28	3.17818
2.29	3.16469
2.3	3.17193
2.31	3.14758
2.32	3.16699
2.33	3.16699
2.34	3.17686
2.35	3.21107
2.36	3.17916
2.37	3.16272
2.38	3.12949
2.39	3.15449
2.4	3.1693
2.41	3.15976
2.42	3.15285
2.43	3.1387
2.44	3.17949
2.45	3.13607
2.46	3.12587
2.47	3.16272
2.48	3.14462
2.49	3.15844
2.5	3.17259
2.51	3.16765
2.52	3.13969
2.53	3.14331
2.54	3.17291
2.55	3.18443
2.56	3.15351
2.57	3.15383
2.58	3.14528
2.59	3.18081
2.6	3.15811
2.61	3.15712
2.62	3.20186
2.63	3.20548
2.64	3.17752
2.65	3.16601
2.66	3.16074
2.67	3.12522
2.68	3.14101
2.69	3.13541
2.7	3.17884
2.71	3.14166
2.72	3.15548
2.73	3.16173
2.74	3.14199
2.75	3.14166
2.76	3.14101
2.77	3.14857
2.78	3.12094
2.79	3.14791
2.8	3.13114
2.81	3.17587
2.82	3.18311
2.83	3.14397
2.84	3.12686
2.85	3.14989
2.86	3.16831
2.87	3.15219
2.88	3.15383
2.89	3.12357
2.9	3.13377
2.91	3.15581
2.92	3.17982
2.93	3.17127
2.94	3.15252
2.95	3.13936
2.96	3.12719
2.97	3.13508
2.98	3.14133
2.99	3.16601
3	3.16272
3.01	3.16601
3.02	3.16535
3.03	3.14462
3.04	3.13081
3.05	3.1387
3.06	3.13739
3.07	3.14101
3.08	3.10877
3.09	3.13574
3.1	3.12686
3.11	3.15712
3.12	3.14364
3.13	3.14199
3.14	3.1341
3.15	3.11074
3.16	3.11337
3.17	3.12653
3.18	3.12785
3.19	3.15252
3.2	3.14923
3.21	3.1512
3.22	3.12554
3.23	3.14298
3.24	3.15022
3.25	3.15022
3.26	3.14693
3.27	3.09067
3.28	3.08212
3.29	3.12456
3.3	3.13278
3.31	3.09232
3.32	3.14857
3.33	3.1568
3.34	3.14166
3.35	3.11765
3.36	3.13936
3.37	3.12916
3.38	3.10712
3.39	3.15153
3.4	3.15647
3.41	3.13936
3.42	3.12719
3.43	3.14462
3.44	3.10975
3.45	3.08903
3.46	3.1137
3.47	3.14035
3.48	3.1466
3.49	3.11798
3.5	3.14002
3.51	3.11864
3.52	3.16107
3.53	3.09199
3.54	3.10745
3.55	3.1091
3.56	3.10943
3.57	3.12423
3.58	3.13903
3.59	3.12258
3.6	3.12752
3.61	3.14528
3.62	3.13344
3.63	3.13179
3.64	3.13508
3.65	3.13081
3.66	3.13837
3.67	3.1466
3.68	3.10318
3.69	3.11469
3.7	3.14693
3.71	3.1262
3.72	3.14726
3.73	3.11041
3.74	3.08015
3.75	3.10021
3.76	3.13969
3.77	3.15383
3.78	3.09364
3.79	3.10943
3.8	3.09857
3.81	3.09002
3.82	3.13443
3.83	3.13147
3.84	3.16732
3.85	3.12719
3.86	3.12423
3.87	3.16337
3.88	3.13541
3.89	3.12028
3.9	3.0864
3.91	3.09627
3.92	3.12719
3.93	3.15943
3.94	3.13245
3.95	3.11864
3.96	3.14068
3.97	3.13673
3.98	3.10943
3.99	3.10614
4	3.12258
4.01	3.11831
4.02	3.13048
4.03	3.14035
4.04	3.14068
4.05	3.1239
4.06	3.13541
4.07	3.11699
4.08	3.091
4.09	3.10186
4.1	3.11633
4.11	3.12653
4.12	3.11304
4.13	3.12916
4.14	3.11436
4.15	3.08475
4.16	3.10186
4.17	3.11239
4.18	3.11469
4.19	3.10712
4.2	3.11864
4.21	3.12258
4.22	3.09561
4.23	3.10581
4.24	3.11633
4.25	3.15087
4.26	3.12258
4.27	3.11337
4.28	3.1216
4.29	3.10679
4.3	3.12785
4.31	3.08706
4.32	3.10975
4.33	3.14068
4.34	3.11962
4.35	3.09692
4.36	3.11502
4.37	3.11962
4.38	3.08936
4.39	3.09265
4.4	3.08344
4.41	3.12423
4.42	3.08706
4.43	3.08607
4.44	3.09989
4.45	3.11041
4.46	3.12028
4.47	3.14133
4.48	3.11041
4.49	3.11304
4.5	3.09166
4.51	3.06699
4.52	3.05186
4.53	3.0864
4.54	3.10844
4.55	3.11864
4.56	3.12193
4.57	3.09561
4.58	3.10153
4.59	3.09331
4.6	3.10318
4.61	3.09002
4.62	3.09331
4.63	3.08607
4.64	3.07094
4.65	3.0966
4.66	3.09791
4.67	3.08574
4.68	3.08508
4.69	3.10252
4.7	3.10548
4.71	3.091
4.72	3.1012
4.73	3.1285
4.74	3.09166
4.75	3.11929
4.76	3.11173
4.77	3.06929
4.78	3.09035
4.79	3.07225
4.8	3.07719
4.81	3.11436
4.82	3.12719
4.83	3.09758
4.84	3.06469
4.85	3.07752
4.86	3.09956
4.87	3.11041
4.88	3.08212
4.89	3.10581
4.9	3.12423
4.91	3.11107
4.92	3.10186
4.93	3.12357
4.94	3.10515
4.95	3.09396
4.96	3.13048
4.97	3.09166
4.98	3.08048
4.99	3.07916
5	3.08673
5.01	3.08179
5.02	3.07127
5.03	3.08936
5.04	3.10679
5.05	3.09396
5.06	3.09199
5.07	3.08442
5.08	3.10943
5.09	3.11864
5.1	3.11666
5.11	3.0887
5.12	3.08311
5.13	3.09232
5.14	3.07488
5.15	3.07423
5.16	3.066
5.17	3.09166
5.18	3.11304
5.19	3.08706
5.2	3.10877
5.21	3.09199
5.22	3.07883
5.23	3.07324
5.24	3.06567
5.25	3.06534
5.26	3.066
5.27	3.04528
5.28	3.07817
5.29	3.09429
5.3	3.10679
5.31	3.10383
5.32	3.08146
5.33	3.09199
5.34	3.10087
5.35	3.09002
5.36	3.0535
5.37	3.06304
5.38	3.10087
5.39	3.09956
5.4	3.11008
5.41	3.0762
5.42	3.08706
5.43	3.07127
5.44	3.07883
5.45	3.06206
5.46	3.08442
5.47	3.06666
5.48	3.04528
5.49	3.04232
5.5	3.07949
5.51	3.06995
5.52	3.0966
5.53	3.10087
5.54	3.05975
5.55	3.09035
5.56	3.07587
5.57	3.09692
5.58	3.09989
5.59	3.12456
5.6	3.09725
5.61	3.10383
5.62	3.0739
5.63	3.09002
5.64	3.07686
5.65	3.07554
5.66	3.08706
5.67	3.11633
5.68	3.09857
5.69	3.06567
5.7	3.10581
5.71	3.08377
5.72	3.07719
5.73	3.06831
5.74	3.09035
5.75	3.09758
5.76	3.05383
5.77	3.08278
5.78	3.06436
5.79	3.07258
5.8	3.09002
5.81	3.07324
5.82	3.1035
5.83	3.06074
5.84	3.07258
5.85	3.06074
5.86	3.07127
5.87	3.09232
5.88	3.06337
5.89	3.05054
5.9	3.06173
5.91	3.08574
5.92	3.09627
5.93	3.05548
5.94	3.07357
5.95	3.09956
5.96	3.05482
5.97	3.07521
5.98	3.06666
5.99	3.07817
6	3.08048
6.01	3.07785
6.02	3.10318
6.03	3.06502
6.04	3.08311
6.05	3.07423
6.06	3.04133
6.07	3.0614
6.08	3.08048
6.09	3.05482
6.1	3.03837
6.11	3.08508
6.12	3.07423
6.13	3.07554
6.14	3.08804
6.15	3.10943
6.16	3.09956
6.17	3.06962
6.18	3.066
6.19	3.08245
6.2	3.08804
6.21	3.05317
6.22	3.07357
6.23	3.05679
6.24	3.06534
6.25	3.04758
6.26	3.10383
6.27	3.06337
6.28	3.0716
6.29	3.08574
6.3	3.06107
6.31	3.06995
6.32	3.10416
6.33	3.09364
6.34	3.07719
6.35	3.04857
6.36	3.06403
6.37	3.06863
6.38	3.05054
6.39	3.07456
6.4	3.04495
6.41	3.04166
6.42	3.06008
6.43	3.08673
6.44	3.09462
6.45	3.02653
6.46	3.05449
6.47	3.07785
6.48	3.07324
6.49	3.05877
6.5	3.0614
6.51	3.06633
6.52	3.06238
6.53	3.08377
6.54	3.08377
6.55	3.06666
6.56	3.08706
6.57	3.07653
6.58	3.05877
6.59	3.06271
6.6	3.10778
6.61	3.09594
6.62	3.05581
6.63	3.07686
6.64	3.04265
6.65	3.04791
6.66	3.07752
6.67	3.07094
6.68	3.04133
6.69	3.05317
6.7	3.06896
6.71	3.09364
6.72	3.07192
6.73	3.06831
6.74	3.0512
6.75	3.07916
6.76	3.06765
6.77	3.0716
6.78	3.0762
6.79	3.08311
6.8	3.07225
6.81	3.05844
6.82	3.01534
6.83	3.03311
6.84	3.03607
6.85	3.06206
6.86	3.03673
6.87	3.00383
6.88	3.06633
6.89	3.06567
6.9	3.06765
6.91	3.06074
6.92	3.05153
6.93	3.04988
6.94	3.06173
6.95	3.0637
6.96	3.04857
6.97	3.08541
6.98	3.0785
6.99	3.08344
7	3.06765
7.01	3.05613
7.02	3.04791
7.03	3.06238
7.04	3.0716
7.05	3.0364
7.06	3.05416
7.07	3.07554
7.08	3.07916
7.09	3.07916
7.1	3.05975
7.11	3.02982
7.12	3.02982
7.13	3.04659
7.14	3.05778
7.15	3.06863
7.16	3.0887
7.17	3.06107
7.18	3.0512
7.19	3.07949
7.2	3.05515
7.21	3.07258
7.22	3.03278
7.23	3.04824
7.24	3.08113
7.25	3.07028
7.26	3.04923
7.27	3.06271
7.28	3.06995
7.29	3.04627
7.3	3.05811
7.31	3.06107
7.32	3.03574
7.33	3.03738
7.34	3.07916
7.35	3.06633
7.36	3.0433
7.37	3.08541
7.38	3.05416
7.39	3.04627
7.4	3.03574
7.41	3.04133
7.42	3.05284
7.43	3.06863
7.44	3.02291
7.45	3.05252
7.46	3.05778
7.47	3.03245
7.48	3.02587
7.49	3.05909
7.5	3.04824
7.51	3.04857
7.52	3.03771
7.53	3.01732
7.54	3.05581
7.55	3.07817
7.56	3.03804
7.57	3.04298
7.58	3.03475
7.59	3.05844
7.6	3.07521
7.61	3.06074
7.62	3.05186
7.63	3.05054
7.64	3.05745
7.65	3.03607
7.66	3.03738
7.67	3.05219
7.68	3.05252
7.69	3.04758
7.7	3.06173
7.71	3.03771
7.72	3.01041
7.73	3.04396
7.74	3.02817
7.75	3.04462
7.76	3.03015
7.77	3.04659
7.78	3.041
7.79	3.0433
7.8	3.066
7.81	3.041
7.82	3.04396
7.83	3.02817
7.84	3.02258
7.85	3.01962
7.86	3.03212
7.87	3.03344
7.88	3.06567
7.89	3.05975
7.9	3.06962
7.91	3.06074
7.92	3.00087
7.93	3.03673
7.94	3.0387
7.95	3.05745
7.96	2.98903
7.97	3.03146
7.98	3.0887
7.99	3.05811
8	3.03969
8.01	3.03344
8.02	3.05877
8.03	3.04462
8.04	3.0614
8.05	3.05712
8.06	3.05317
8.07	2.99462
8.08	3.05416
8.09	3.03936
8.1	3.0535
8.11	3.03508
8.12	3.02751
8.13	3.00909
8.14	3.02061
8.15	3.01962
8.16	3.03048
8.17	3.04923
8.18	3.04955
8.19	2.98179
8.2	3.00975
8.21	3.06732
8.22	3.07192
8.23	3.04265
8.24	3.02883
8.25	3.01896
8.26	3.02061
8.27	3.05679
8.28	3.02291
8.29	3.00844
8.3	3.04298
8.31	3.05613
8.32	3.00449
8.33	3.02028
8.34	3.06074
8.35	3.03837
8.36	3.03738
8.37	3.03278
8.38	3.05581
8.39	3.041
8.4	3.04692
8.41	3.04659
8.42	3.06173
8.43	3.0433
8.44	3.04528
8.45	3.04429
8.46	3.03936
8.47	3.03245
8.48	3.06633
8.49	3.06863
8.5	3.05975
8.51	3.04396
8.52	3.01469
8.53	3.02455
8.54	3.02982
8.55	3.03245
8.56	3.0035
8.57	3.04232
8.58	3.05284
8.59	3.03903
8.6	3.02817
8.61	3.02291
8.62	3.00251
8.63	3.03146
8.64	3.05679
8.65	3.05219
8.66	3.04824
8.67	3.00778
8.68	3.01962
8.69	3.02751
8.7	3.04396
8.71	3.05877
8.72	3.03738
8.73	2.99265
8.74	3.05054
8.75	3.05909
8.76	3.04758
8.77	3.04002
8.78	3.03113
8.79	3.0387
8.8	3.04396
8.81	3.04495
8.82	3.02192
8.83	3.04002
8.84	3.01172
8.85	3.03804
8.86	3.03475
8.87	3.04659
8.88	3.01995
8.89	3.03311
8.9	3.04955
8.91	3.03771
8.92	3.03442
8.93	3.01699
8.94	3.02423
8.95	3.00613
8.96	3.04528
8.97	3.01469
8.98	3.01501
8.99	3.04429
9	3.04462
9.01	3.00745
9.02	3.04692
9.03	3.0614
9.04	3.05877
9.05	3.03278
9.06	3.00251
9.07	3.03409
9.08	3.02028
9.09	3.0183
9.1	3.00054
9.11	3.02488
9.12	3.0035
9.13	3.00876
9.14	3.0308
9.15	3.04495
9.16	3.02521
9.17	3.01995
9.18	3.02192
9.19	3.02159
9.2	3.0239
9.21	3.0012
9.22	3.00054
9.23	3.02521
9.24	2.99659
9.25	3.00844
9.26	3.03409
9.27	3.00153
9.28	3.02488
9.29	3.03179
9.3	3.0114
9.31	3.02291
9.32	3.06567
9.33	3.01699
9.34	3.0285
9.35	3.01304
9.36	3.01205
9.37	3.02883
9.38	3.02061
9.39	3.00975
9.4	3.0114
9.41	3.03541
9.42	3.04725
9.43	2.99659
9.44	3.01107
9.45	3.02587
9.46	3.02291
9.47	3.06403
9.48	3.02192
9.49	3.04627
9.5	3.02357
9.51	3.02982
9.52	3.00613
9.53	3.00547
9.54	3.0433
9.55	3.0239
9.56	3.00712
9.57	3.05054
9.58	3.02949
9.59	3.02094
9.6	3.04067
9.61	3.04133
9.62	3.05877
9.63	3.06206
9.64	2.99462
9.65	3.00876
9.66	3.03179
9.67	3.00054
9.68	3.01469
9.69	3.01765
9.7	3.0262
9.71	3.00186
9.72	3.0137
9.73	3.0239
9.74	2.99363
9.75	2.98442
9.76	3.02587
9.77	3.03376
9.78	2.99692
9.79	3.01403
9.8	3.04232
9.81	3.03015
9.82	3.00547
9.83	3.00153
9.84	3.01567
9.85	2.99824
9.86	3.00942
9.87	3.02982
9.88	3.01501
9.89	2.99955
9.9	3.01567
9.91	3.04265
9.92	3.0387
9.93	3.03376
9.94	3.04561
9.95	3.03245
9.96	3.02719
9.97	3.0285
9.98	3.01501
9.99	2.9887
10	3.02686
10.01	3.04363
10.02	3.00515
10.03	3.00153
10.04	3.06567
10.05	3.03376
10.06	3.00876
10.07	3.00679
10.08	3.03311
10.09	3.01238
10.1	3.03475
10.11	3.01995
10.12	3.01633
10.13	3.0239
10.14	3.04462
10.15	3.01863
10.16	3.0433
10.17	3.00021
10.18	3.01929
10.19	3.03969
10.2	3.01929
10.21	3.02751
10.22	3.01501
10.23	3.01699
10.24	3.03541
10.25	3.00515
10.26	3.02357
10.27	3.0114
10.28	3.02784
10.29	3.00613
10.3	3.02423
10.31	3.00975
10.32	3.00778
10.33	3.0114
10.34	3.03936
10.35	3.01666
10.36	3.04758
10.37	3.00482
10.38	3.0114
10.39	3.01798
10.4	3.00844
10.41	2.99067
10.42	2.97455
10.43	3.01107
10.44	3.02192
10.45	3.02126
10.46	2.99001
10.47	3.00251
10.48	3.00909
10.49	3.01501
10.5	3.03804
10.51	2.99067
10.52	3.00219
10.53	3.01567
10.54	3.01469
10.55	3.01041
10.56	3.01995
10.57	3.03508
10.58	3.03705
10.59	3.04429
10.6	3.04199
10.61	3.00515
10.62	3.00745
10.63	3.01798
10.64	3.00219
10.65	2.99462
10.66	3.01534
10.67	3.02258
10.68	2.99857
10.69	2.99232
10.7	3.01765
10.71	3.01501
10.72	2.99495
10.73	3.02488
10.74	3.01172
10.75	3.01567
10.76	3.02126
10.77	3.01633
10.78	3.01863
10.79	2.98212
10.8	2.99034
10.81	3.01041
10.82	3.01666
10.83	2.97192
10.84	3.02949
10.85	3.0364
10.86	3.00482
10.87	3.01896
10.88	2.98804
10.89	2.98607
10.9	2.98804
10.91	3.00054
10.92	3.02455
10.93	3.01633
10.94	3.04232
10.95	3.03409
10.96	3.04232
10.97	3.02982
10.98	3.01107
10.99	3.03673
11	3.01567
11.01	3.00054
11.02	3.02291
11.03	3.03475
11.04	3.02455
11.05	3.03936
11.06	3.00449
11.07	2.97784
11.08	2.9762
11.09	2.98771
11.1	2.96271
11.11	2.99067
11.12	2.99758
11.13	2.98738
11.14	2.98804
11.15	3.0035
11.16	3.0285
11.17	3.01567
11.18	3.02719
11.19	3.02324
11.2	3.0012
11.21	2.97225
11.22	2.98278
11.23	3.01205
11.24	3.02784
11.25	3.016
11.26	3.01798
11.27	2.99232
11.28	3.00613
11.29	3.016
11.3	2.98278
11.31	2.9933
11.32	2.98705
11.33	3.00745
11.34	2.99922
11.35	3.04232
11.36	3.03015
11.37	3.04034
11.38	3.02028
11.39	3.07752
11.4	3.0262
11.41	2.99232
11.42	2.991
11.43	2.99067
11.44	2.99067
11.45	2.99067
11.46	3.00219
11.47	2.99593
11.48	2.98245
11.49	3.00679
11.5	3.041
11.51	3.03409
11.52	3.00087
11.53	3.03376
11.54	3.03969
11.55	3.02488
11.56	2.99396
11.57	2.97455
11.58	2.97982
11.59	2.99725
11.6	3.00449
11.61	3.04034
11.62	3.0433
11.63	3.00876
11.64	3.00909
11.65	3.00547
11.66	3.02192
11.67	3.03048
11.68	3.00087
11.69	2.98508
11.7	3.02455
11.71	3.01238
11.72	3.02554
11.73	2.98047
11.74	2.98014
11.75	3.02883
11.76	3.02258
11.77	3.00284
11.78	3.00219
11.79	2.99659
11.8	3.0058
11.81	2.9887
11.82	2.96238
11.83	3.00679
11.84	3.03311
11.85	3.03673
11.86	2.99396
11.87	2.98705
11.88	3.01567
11.89	2.99955
11.9	2.99791
11.91	3.01534
11.92	3.03245
11.93	3.00021
11.94	3.00515
11.95	2.99462
11.96	3.00515
11.97	3.00449
11.98	3.00876
11.99	2.99791
12	3.02587
12.01	3.02817
12.02	3.00416
12.03	3.00251
12.04	2.96403
12.05	2.99067
12.06	2.97883
12.07	2.98574
12.08	2.991
12.09	2.99133
12.1	3.01337
12.11	2.99824
12.12	3.0114
12.13	3.00317
12.14	2.99824
12.15	3.02061
12.16	3.02883
12.17	3.03015
12.18	3.03541
12.19	3.00712
12.2	2.97916
12.21	2.99626
12.22	3.01732
12.23	2.99001
12.24	2.97258
12.25	2.99429
12.26	2.99363
12.27	2.99528
12.28	3.02324
12.29	2.98311
12.3	2.97817
12.31	2.99001
12.32	2.99528
12.33	3.01172
12.34	2.966
12.35	2.99528
12.36	3.02291
12.37	2.99429
12.38	2.99429
12.39	2.96962
12.4	2.99199
12.41	2.98508
12.42	3.0137
12.43	3.01534
12.44	3.00745
12.45	3.01008
12.46	2.99692
12.47	3.0035
12.48	2.97686
12.49	2.9785
12.5	3.0012
12.51	2.98738
12.52	2.99659
12.53	3.01534
12.54	2.97653
12.55	2.98771
12.56	3.00745
12.57	3.00811
12.58	2.96435
12.59	2.99133
12.6	3.00317
12.61	2.99495
12.62	2.991
12.63	2.98903
12.64	3.00679
12.65	2.98343
12.66	2.96764
12.67	2.99034
12.68	2.99429
12.69	2.99922
12.7	2.98771
12.71	2.98837
12.72	2.95646
12.73	2.98541
12.74	3.02784
12.75	3.0239
12.76	2.98047
12.77	2.98146
12.78	3.00449
12.79	3.03508
12.8	3.016
12.81	2.97718
12.82	2.97126
12.83	3.02258
12.84	3.02357
12.85	2.98179
12.86	2.9989
12.87	2.96633
12.88	2.9785
12.89	3.03936
12.9	3.01238
12.91	3.0364
12.92	3.00021
12.93	2.9887
12.94	2.98936
12.95	2.99922
12.96	2.99659
12.97	2.97126
12.98	2.97324
12.99	2.95909
13	2.95218
13.01	2.96764
13.02	2.97784
13.03	3.00021
13.04	2.99396
13.05	2.99265
13.06	3.0114
13.07	2.97028
13.08	2.99462
13.09	3.00449
13.1	2.991
13.11	2.98311
13.12	2.97587
13.13	3.00712
13.14	3.00975
13.15	2.96863
13.16	2.9887
13.17	2.99593
13.18	2.98837
13.19	2.98574
13.2	3.0262
13.21	2.99692
13.22	3.01732
13.23	3.00087
13.24	3.01304
13.25	2.99791
13.26	3.02488
13.27	2.96929
13.28	2.9989
13.29	2.96567
13.3	2.96205
13.31	2.96567
13.32	3.00482
13.33	3.0239
13.34	2.98442
13.35	2.98771
13.36	2.9637
13.37	2.96797
13.38	2.99199
13.39	2.98672
13.4	2.991
13.41	2.99166
13.42	2.96732
13.43	2.99363
13.44	3.00219
13.45	3.00975
13.46	3.02225
13.47	2.99692
13.48	2.97916
13.49	2.98837
13.5	2.98212
13.51	2.99034
13.52	2.98047
13.53	3.01403
13.54	2.9887
13.55	2.9887
13.56	3.00712
13.57	3.00021
13.58	2.99001
13.59	3.01337
13.6	2.99626
13.61	2.95284
13.62	2.9683
13.63	2.96863
13.64	2.99462
13.65	2.99561
13.66	2.9864
13.67	2.98245
13.68	2.98574
13.69	2.966
13.7	2.99824
13.71	3.00449
13.72	2.96501
13.73	3.01403
13.74	3.01238
13.75	3.00909
13.76	3.01567
13.77	2.97389
13.78	3.0114
13.79	3.0262
13.8	2.99626
13.81	2.94725
13.82	2.99659
13.83	2.99133
13.84	3.00712
13.85	2.96666
13.86	2.98343
13.87	2.98804
13.88	2.9808
13.89	2.97653
13.9	2.97653
13.91	3.00284
13.92	3.00284
13.93	2.99922
13.94	2.98179
13.95	2.98311
13.96	3.0114
13.97	3.00613
13.98	2.9808
13.99	2.97126
14	2.97554
14.01	2.98343
14.02	2.98574
14.03	3.0035
14.04	2.99857
14.05	3.00909
14.06	2.97521
14.07	2.99955
14.08	2.97686
14.09	3.00745
14.1	3.00745
14.11	2.9864
14.12	2.97192
14.13	3.01205
14.14	2.98804
14.15	2.96633
14.16	2.99626
14.17	3.00449
14.18	2.96107
14.19	2.99363
14.2	2.99429
14.21	2.98705
14.22	2.98212
14.23	2.98903
14.24	2.98212
14.25	2.99001
14.26	2.98837
14.27	2.9762
14.28	2.98607
14.29	2.96699
14.3	3.00416
14.31	2.98508
14.32	2.97718
14.33	3.02291
14.34	2.99593
14.35	2.94791
14.36	2.97554
14.37	2.97883
14.38	2.9637
14.39	2.98968
14.4	2.96337
14.41	2.97521
14.42	2.97291
14.43	2.98508
14.44	2.98014
14.45	2.99561
14.46	2.99561
14.47	2.99001
14.48	2.97554
14.49	2.97192
14.5	2.97686
14.51	2.97488
14.52	2.98968
14.53	2.98738
14.54	3.016
14.55	2.97357
14.56	2.97916
14.57	2.98607
14.58	2.98738
14.59	2.97718
14.6	2.98212
14.61	2.97587
14.62	2.98541
14.63	2.99593
14.64	2.99824
14.65	3.00284
14.66	2.97488
14.67	2.9933
14.68	2.99791
14.69	3.01929
14.7	2.99232
14.71	2.99955
14.72	2.98607
14.73	3.00613
14.74	2.98245
14.75	2.99659
14.76	2.98212
14.77	2.9864
14.78	3.00975
14.79	2.95679
14.8	2.98409
14.81	3.00186
14.82	2.96107
14.83	2.9808
14.84	2.97488
14.85	2.95679
14.86	2.97751
14.87	2.99988
14.88	2.97784
14.89	2.97126
14.9	2.98014
14.91	2.9535
14.92	2.96468
14.93	2.97587
14.94	2.98936
14.95	2.99166
14.96	2.96107
14.97	2.98311
14.98	2.98804
14.99	2.98738
15	2.97488
15.01	2.99495
15.02	2.97521
15.03	2.97784
15.04	2.99034
15.05	2.9637
15.06	2.99363
15.07	3.00153
15.08	2.98738
15.09	2.98343
15.1	2.95646
15.11	2.97389
15.12	2.97488
15.13	2.98047
15.14	2.98705
15.15	2.99396
15.16	3.00284
15.17	2.9762
15.18	2.95843
15.19	2.96929
15.2	2.96896
15.21	2.97751
15.22	2.99758
15.23	2.98014
15.24	2.98311
15.25	3.00745
15.26	2.97291
15.27	2.98278
15.28	3.0137
15.29	2.97916
15.3	2.9785
15.31	2.99593
15.32	2.98475
15.33	2.97587
15.34	3.00712
15.35	2.97916
15.36	2.98804
15.37	2.98475
15.38	2.98179
15.39	2.93047
15.4	3.00054
15.41	2.99659
15.42	3.01041
15.43	2.99528
15.44	2.99067
15.45	2.98508
15.46	2.99265
15.47	2.97718
15.48	2.96074
15.49	2.9683
15.5	2.98245
15.51	2.98574
15.52	2.98047
15.53	2.97718
15.54	2.96699
15.55	2.98672
15.56	2.99922
15.57	2.99988
15.58	2.98968
15.59	2.99758
15.6	2.97455
15.61	2.97817
15.62	2.97883
15.63	2.96468
15.64	2.99034
15.65	2.96337
15.66	2.96435
15.67	2.95449
15.68	3.01501
15.69	2.97982
15.7	2.97389
15.71	3.00679
15.72	3.01304
15.73	2.99396
15.74	2.97061
15.75	2.99297
15.76	2.96435
15.77	2.96403
15.78	2.96732
15.79	2.97488
15.8	2.98672
15.81	2.95712
15.82	2.98014
15.83	2.98771
15.84	2.98014
15.85	2.97488
15.86	3.0035
15.87	2.98311
15.88	2.97982
15.89	2.98475
15.9	2.98574
15.91	2.9683
15.92	2.97521
15.93	2.97784
15.94	2.98278
15.95	2.98179
15.96	2.99528
15.97	2.95383
15.98	2.97488
15.99	2.98837
16	2.98047
16.01	2.95876
16.02	2.98804
16.03	2.96633
16.04	2.98409
16.05	2.97982
16.06	2.96271
16.07	2.98409
16.08	2.9785
16.09	2.93409
16.1	2.96666
16.11	2.96633
16.12	3.01041
16.13	2.96271
16.14	2.96172
16.15	2.95087
16.16	2.96896
16.17	2.98804
16.18	2.97258
16.19	2.96995
16.2	2.96337
16.21	2.99725
16.22	3.00646
16.23	2.97916
16.24	2.95218
16.25	2.96172
16.26	2.97718
16.27	2.96666
16.28	2.93014
16.29	2.97258
16.3	2.9785
16.31	2.96534
16.32	2.97587
16.33	2.9933
16.34	2.98672
16.35	2.96337
16.36	2.97587
16.37	2.97982
16.38	3.0012
16.39	2.9762
16.4	3.0012
16.41	2.94791
16.42	2.99561
16.43	2.98014
16.44	2.98541
16.45	2.95778
16.46	2.94626
16.47	2.96172
16.48	2.93672
16.49	2.96567
16.5	2.9785
16.51	2.9785
16.52	2.9637
16.53	2.96107
16.54	2.96633
16.55	2.96107
16.56	2.94166
16.57	2.94692
16.58	2.92685
16.59	2.99659
16.6	2.99593
16.61	2.97982
16.62	2.97422
16.63	2.95679
16.64	2.9808
16.65	2.95514
16.66	2.95909
16.67	2.96468
16.68	2.9637
16.69	2.97422
16.7	2.94758
16.71	2.96896
16.72	2.97225
16.73	2.96468
16.74	2.96304
16.75	3.00383
16.76	2.96205
16.77	2.99363
16.78	2.96501
16.79	2.94856
16.8	2.96403
16.81	2.97389
16.82	2.97422
16.83	2.96304
16.84	2.96995
16.85	2.96534
16.86	2.98245
16.87	2.98936
16.88	2.98047
16.89	2.98508
16.9	2.97093
16.91	2.9683
16.92	2.991
16.93	2.97324
16.94	2.96041
16.95	2.93409
16.96	2.95778
16.97	2.96205
16.98	2.96501
16.99	3.00021
17	3.01008
17.01	3.00383
17.02	2.96633
17.03	2.97389
17.04	2.99791
17.05	2.99001
17.06	2.98738
17.07	2.98771
17.08	2.98146
17.09	2.97521
17.1	2.97357
17.11	2.95942
17.12	3.0035
17.13	2.96304
17.14	2.99429
17.15	2.98541
17.16	2.95482
17.17	2.97324
17.18	3.0035
17.19	2.99396
17.2	2.94396
17.21	2.95514
17.22	2.99528
17.23	2.97817
17.24	2.93376
17.25	2.96699
17.26	2.96666
17.27	2.96435
17.28	2.98014
17.29	2.98936
17.3	2.99034
17.31	2.99692
17.32	2.99199
17.33	3.01962
17.34	2.99561
17.35	2.99034
17.36	2.96107
17.37	2.95087
17.38	2.95383
17.39	2.97718
17.4	2.96962
17.41	2.99396
17.42	2.97949
17.43	2.99561
17.44	2.98804
17.45	2.95514
17.46	2.95449
17.47	2.95646
17.48	2.99955
17.49	2.99001
17.5	2.95975
17.51	2.95712
17.52	2.97455
17.53	3.0035
17.54	2.98837
17.55	2.991
17.56	2.98278
17.57	3.00942
17.58	2.99495
17.59	2.95679
17.6	2.96534
17.61	2.96435
17.62	2.94593
17.63	2.95416
17.64	3.02094
17.65	2.96929
17.66	2.93672
17.67	2.96107
17.68	2.96863
17.69	3.00153
17.7	2.97686
17.71	3.00811
17.72	3.00186
17.73	2.98014
17.74	2.97949
17.75	2.98245
17.76	2.98014
17.77	2.97916
17.78	2.98343
17.79	2.99593
17.8	2.99232
17.81	2.96337
17.82	2.97389
17.83	2.96534
17.84	2.97982
17.85	2.97061
17.86	2.94133
17.87	2.94692
17.88	2.99034
17.89	2.97159
17.9	2.98936
17.91	2.97093
17.92	2.99725
17.93	2.95054
17.94	2.94166
17.95	2.96074
17.96	2.966
17.97	2.98047
17.98	2.97258
17.99	2.94758
18	2.94363
18.01	2.95185
18.02	2.96501
18.03	2.94889
18.04	2.95054
18.05	2.94396
18.06	2.95416
18.07	2.95646
18.08	2.96403
18.09	2.96074
18.1	2.96534
18.11	2.96468
18.12	2.99199
18.13	2.95975
18.14	2.94429
18.15	2.96139
18.16	2.96304
18.17	2.9637
18.18	2.9887
18.19	2.98343
18.2	2.96962
18.21	2.99265
18.22	3.00942
18.23	2.98014
18.24	2.98771
18.25	3.00547
18.26	2.98047
18.27	3.00482
18.28	2.96238
18.29	2.96238
18.3	2.94889
18.31	2.9535
18.32	2.97587
18.33	2.9558
18.34	2.94791
18.35	2.97422
18.36	2.98113
18.37	2.97587
18.38	2.94593
18.39	2.94166
18.4	2.97455
18.41	2.96435
18.42	2.96238
18.43	2.97126
18.44	2.97291
18.45	2.95317
18.46	2.9433
18.47	2.96435
18.48	2.96962
18.49	2.99955
18.5	2.9864
18.51	2.97916
18.52	2.99001
18.53	2.9785
18.54	2.96797
18.55	2.96534
18.56	2.99133
18.57	2.98968
18.58	2.99396
18.59	2.98574
18.6	2.96567
18.61	2.98508
18.62	2.97258
18.63	2.95712
18.64	2.94725
18.65	2.94824
18.66	2.97455
18.67	2.99462
18.68	2.99692
18.69	2.94133
18.7	2.93639
18.71	2.96205
18.72	2.96929
18.73	2.96633
18.74	2.94462
18.75	2.96732
18.76	2.94824
18.77	2.97751
18.78	2.96567
18.79	2.94659
18.8	2.97324
18.81	2.98672
18.82	3.00515
18.83	2.98047
18.84	2.95317
18.85	2.98804
18.86	2.98146
18.87	2.98705
18.88	3.01534
18.89	2.96633
18.9	2.97653
18.91	2.95087
18.92	2.96567
18.93	2.97028
18.94	2.97192
18.95	2.97028
18.96	2.97982
18.97	2.93508
18.98	2.93804
18.99	2.96172
19	2.9762
19.01	2.97093
19.02	2.97521
19.03	2.95778
19.04	2.96107
19.05	2.97784
19.06	2.99133
19.07	3.00219
19.08	2.98508
19.09	2.97949
19.1	2.98837
19.11	2.96139
19.12	2.98574
19.13	2.97916
19.14	2.97916
19.15	2.94955
19.16	2.99232
19.17	2.97554
19.18	2.99363
19.19	2.96435
19.2	2.96699
19.21	2.97587
19.22	2.98146
19.23	2.97455
19.24	2.95251
19.25	2.95218
19.26	2.96534
19.27	2.95745
19.28	2.97389
19.29	2.98179
19.3	2.99133
19.31	2.98771
19.32	2.95383
19.33	2.98968
19.34	2.98672
19.35	2.96863
19.36	2.96567
19.37	2.99758
19.38	2.96271
19.39	2.94396
19.4	2.94166
19.41	2.97784
19.42	2.97291
19.43	2.95613
19.44	2.94133
19.45	2.96238
19.46	2.98245
19.47	2.94593
19.48	2.97324
19.49	2.96534
19.5	3.00317
19.51	2.98278
19.52	2.96074
19.53	2.98804
19.54	2.96468
19.55	2.94067
19.56	2.97488
19.57	3.00778
19.58	2.95646
19.59	2.95843
19.6	2.9387
19.61	2.93179
19.62	2.99824
19.63	2.97159
19.64	2.94922
19.65	2.9683
19.66	2.99034
19.67	2.96041
19.68	2.95547
19.69	2.98574
19.7	2.97455
19.71	2.96995
19.72	2.97389
19.73	2.95449
19.74	2.95251
19.75	2.94626
19.76	2.96271
19.77	2.99396
19.78	2.98508
19.79	2.97258
19.8	2.95547
19.81	2.95843
19.82	2.97751
19.83	2.99034
19.84	3.0012
19.85	2.9887
19.86	2.96041
19.87	2.98146
19.88	3.00613
19.89	2.97258
19.9	2.98343
19.91	2.96962
19.92	2.97916
19.93	2.96962
19.94	2.96962
19.95	2.95843
19.96	2.97521
19.97	2.97784
19.98	2.99462
19.99	3.00745
20	3.01271
20.01	2.9683
20.02	2.95778
20.03	2.94791
20.04	2.9512
20.05	2.93047
20.06	2.98376
20.07	2.99528
20.08	2.9637
20.09	2.96074
20.1	2.98179
20.11	2.98705
20.12	2.94889
20.13	2.96107
20.14	2.9558
20.15	2.9558
20.16	2.97225
20.17	2.95317
20.18	2.93277
20.19	2.94528
20.2	2.95778
20.21	2.95054
20.22	2.95185
20.23	2.95646
20.24	2.96501
20.25	2.94231
20.26	2.95087
20.27	2.93047
20.28	2.97982
20.29	2.97949
20.3	2.96863
20.31	2.97751
20.32	2.97718
20.33	2.96567
20.34	2.95383
20.35	2.99561
20.36	2.96699
20.37	2.93804
20.38	2.95383
20.39	2.98508
20.4	3.01501
20.41	2.97422
20.42	2.95778
20.43	2.94034
20.44	2.92883
20.45	2.96139
20.46	2.98541
20.47	2.97587
20.48	2.97916
20.49	2.93541
20.5	2.91797
20.51	2.97718
20.52	2.97982
20.53	3.00186
20.54	2.94396
20.55	2.97192
20.56	2.97389
20.57	2.96337
20.58	2.94166
20.59	2.97653
20.6	2.99297
20.61	2.95153
20.62	2.97225
20.63	2.97751
20.64	2.95745
20.65	2.94034
20.66	2.96666
20.67	2.95712
20.68	2.92587
20.69	2.9762
20.7	2.96403
20.71	2.98771
20.72	2.96435
20.73	2.93541
20.74	2.94363
20.75	2.96863
20.76	2.96501
20.77	2.95251
20.78	2.97389
20.79	2.96995
20.8	2.94396
20.81	2.94922
20.82	2.96205
20.83	2.98343
20.84	2.94988
20.85	2.95284
20.86	2.95745
20.87	2.94824
20.88	2.95317
20.89	2.94988
20.9	2.95383
20.91	2.94758
20.92	2.96764
20.93	2.98442
20.94	2.96995
20.95	2.97751
20.96	2.95087
20.97	2.96534
20.98	2.96074
20.99	2.96962
21	2.97061
21.01	2.9285
21.02	2.95416
21.03	2.96139
21.04	2.93508
21.05	2.97258
21.06	2.98738
21.07	2.99297
21.08	3.0262
21.09	2.97422
21.1	2.97192
21.11	2.95745
21.12	2.99001
21.13	2.9887
21.14	2.97521
21.15	2.96403
21.16	2.95218
21.17	2.97587
21.18	2.99626
21.19	2.97521
21.2	2.97126
21.21	2.99561
21.22	2.9762
21.23	2.97784
21.24	2.96337
21.25	2.96008
21.26	2.94758
21.27	2.95712
21.28	2.96666
21.29	2.97159
21.3	2.96896
21.31	2.96929
21.32	2.98936
21.33	2.94396
21.34	2.9933
21.35	2.96896
21.36	2.95712
21.37	2.96534
21.38	2.95449
21.39	2.95712
21.4	2.93343
21.41	2.97028
21.42	3.00317
21.43	2.95646
21.44	2.99133
21.45	2.98014
21.46	2.99265
21.47	2.95317
21.48	2.98146
21.49	2.95416
21.5	2.95778
21.51	2.96337
21.52	2.95646
21.53	2.96962
21.54	2.97093
21.55	3.00909
21.56	2.99396
21.57	2.96304
21.58	2.95251
21.59	2.94824
21.6	2.94264
21.61	2.9512
21.62	2.96633
21.63	2.94166
21.64	2.96929
21.65	2.94001
21.66	2.96468
21.67	2.94297
21.68	2.94495
21.69	2.95087
21.7	2.98179
21.71	2.95942
21.72	2.92455
21.73	2.94297
21.74	2.94692
21.75	2.9683
21.76	2.96337
21.77	2.95975
21.78	2.95251
21.79	2.96041
21.8	2.99593
21.81	2.98508
21.82	2.95449
21.83	2.93442
21.84	2.95876
21.85	3.00054
21.86	2.9637
21.87	2.991
21.88	2.96995
21.89	2.98442
21.9	2.98705
21.91	2.96699
21.92	2.9433
21.93	2.96008
21.94	2.95778
21.95	2.95153
21.96	2.94396
21.97	2.92455
21.98	2.9637
21.99	2.9581
22	2.99232
22.01	2.95054
22.02	2.97324
22.03	2.9683
22.04	2.97093
22.05	2.97554
22.06	2.96797
22.07	2.91238
22.08	2.93804
22.09	2.96863
22.1	2.98409
22.11	2.9456
22.12	2.966
22.13	2.966
22.14	2.95514
22.15	2.92916
22.16	2.96896
22.17	2.97982
22.18	2.98607
22.19	2.96074
22.2	2.94297
22.21	2.96567
22.22	2.95646
22.23	2.94889
22.24	2.97587
22.25	2.98409
22.26	2.95185
22.27	2.96139
22.28	2.94593
22.29	2.97291
22.3	2.98212
22.31	2.96633
22.32	2.9808
22.33	2.96008
22.34	2.95712
22.35	2.94297
22.36	2.96074
22.37	2.94264
22.38	2.96633
22.39	2.93409
22.4	2.97455
22.41	2.93574
22.42	2.94988
22.43	2.95153
22.44	2.95876
22.45	2.94034
22.46	2.9581
22.47	2.93014
22.48	2.94166
22.49	2.95679
22.5	2.95942
22.51	2.94264
22.52	2.94034
22.53	2.9637
22.54	2.96172
22.55	2.96764
22.56	2.9683
22.57	2.98047
22.58	2.98212
22.59	2.94396
22.6	2.97225
22.61	2.97488
22.62	2.9933
22.63	2.966
22.64	2.95975
22.65	2.95449
22.66	2.97718
22.67	2.99166
22.68	2.95547
22.69	2.93179
22.7	2.95679
22.71	2.98508
22.72	2.95185
22.73	2.96238
22.74	2.95646
22.75	2.93705
22.76	2.98409
22.77	2.93903
22.78	2.9387
22.79	2.9581
22.8	2.96534
22.81	2.94791
22.82	2.9581
22.83	2.96337
22.84	2.96962
22.85	2.97324
22.86	2.97225
22.87	2.9762
22.88	2.92784
22.89	2.94889
22.9	2.92225
22.91	2.9433
22.92	2.93179
22.93	2.97357
22.94	2.97159
22.95	2.93376
22.96	2.92356
22.97	2.97982
22.98	2.95975
22.99	2.94988
23	2.97883
23.01	2.9785
23.02	2.9512
23.03	2.95942
23.04	2.94889
23.05	2.94067
23.06	2.92258
23.07	2.95778
23.08	2.95021
23.09	2.9456
23.1	2.93574
23.11	2.92883
23.12	2.95909
23.13	2.97159
23.14	2.96304
23.15	2.94659
23.16	2.96896
23.17	2.94462
23.18	2.91567
23.19	2.95514
23.2	2.94922
23.21	2.95185
23.22	2.97225
23.23	2.96501
23.24	2.95317
23.25	2.94659
23.26	2.9637
23.27	2.9933
23.28	2.93212
23.29	2.9581
23.3	2.95679
23.31	2.93442
23.32	2.9456
23.33	2.9331
23.34	2.97061
23.35	2.95646
23.36	2.96633
23.37	2.9637
23.38	2.95646
23.39	2.96435
23.4	2.9581
23.41	2.94922
23.42	2.97357
23.43	2.95284
23.44	2.91863
23.45	2.9808
23.46	2.96337
23.47	2.94495
23.48	2.966
23.49	2.95778
23.5	2.95251
23.51	2.98672
23.52	2.94462
23.53	2.94264
23.54	2.96337
23.55	2.95646
23.56	2.97192
23.57	2.96107
23.58	2.95449
23.59	2.97126
23.6	2.96205
23.61	2.95778
23.62	2.98442
23.63	2.97653
23.64	2.95745
23.65	2.94133
23.66	2.93541
23.67	2.92488
23.68	2.96797
23.69	2.93113
23.7	2.94692
23.71	2.91797
23.72	2.94462
23.73	2.96797
23.74	2.9683
23.75	2.9785
23.76	2.98804
23.77	2.97554
23.78	2.97686
23.79	2.95153
23.8	2.96501
23.81	2.96764
23.82	2.93639
23.83	2.94133
23.84	2.96567
23.85	2.95087
23.86	2.95975
23.87	2.94988
23.88	2.96172
23.89	2.95317
23.9	2.96764
23.91	2.96501
23.92	2.96172
23.93	2.96534
23.94	2.96205
23.95	2.95482
23.96	2.9535
23.97	2.94396
23.98	2.94231
23.99	2.97982
24	2.97784
24.01	2.95778
24.02	2.9637
24.03	2.96732
24.04	2.93113
24.05	2.94955
24.06	2.96468
24.07	2.93541
24.08	2.94462
24.09	2.93804
24.1	2.96304
24.11	2.95778
24.12	2.93705
24.13	2.94264
24.14	2.89758
24.15	2.95284
24.16	2.97949
24.17	2.97291
24.18	2.95185
24.19	2.94396
24.2	2.92949
24.21	2.94495
24.22	2.916
24.23	2.92159
24.24	2.94725
24.25	2.92883
24.26	2.94889
24.27	2.95942
24.28	2.95218
24.29	2.95514
24.3	2.92949
24.31	2.95975
24.32	2.95514
24.33	2.95778
24.34	2.97126
24.35	2.95054
24.36	2.97159
24.37	2.98113
24.38	2.96008
24.39	2.95876
24.4	2.9785
24.41	2.94824
24.42	2.94593
24.43	2.96205
24.44	2.96962
24.45	2.96699
24.46	2.93245
24.47	2.93672
24.48	2.96962
24.49	2.95843
24.5	2.97093
24.51	2.97291
24.52	2.97587
24.53	2.94988
24.54	2.95021
24.55	2.92291
24.56	2.96172
24.57	2.9512
24.58	2.98541
24.59	2.97817
24.6	2.94758
24.61	2.95284
24.62	2.95218
24.63	2.97422
24.64	2.94495
24.65	2.94067
24.66	2.96074
24.67	2.95613
24.68	2.9581
24.69	2.97258
24.7	2.94593
24.71	2.966
24.72	2.95449
24.73	2.97225
24.74	2.95876
24.75	2.92455
24.76	2.94528
24.77	2.94166
24.78	2.96567
24.79	2.94922
24.8	2.92652
24.81	2.93047
24.82	2.97192
24.83	2.95745
24.84	2.94231
24.85	2.93113
24.86	2.9558
24.87	2.99758
24.88	2.96107
24.89	2.97653
24.9	2.9762
24.91	2.93541
24.92	2.93903
24.93	2.94133
24.94	2.9808
24.95	2.96962
24.96	2.97949
24.97	2.95876
24.98	2.95482
24.99	2.95185
25	2.95153
25.01	2.9683
25.02	2.97061
25.03	2.93804
25.04	2.94758
25.05	2.94725
25.06	2.96139
25.07	2.9581
25.08	2.97093
25.09	2.95646
25.1	2.98442
25.11	2.97883
25.12	2.99692
25.13	2.94199
25.14	2.95942
25.15	2.97982
25.16	2.94955
25.17	2.96732
25.18	2.94692
25.19	2.94034
25.2	2.94231
25.21	2.96041
25.22	2.96633
25.23	2.95087
25.24	2.96896
25.25	2.93442
25.26	2.96962
25.27	2.96435
25.28	2.94955
25.29	2.94495
25.3	2.95876
25.31	2.95153
25.32	2.98047
25.33	2.99462
25.34	2.93672
25.35	2.96534
25.36	2.941
25.37	2.97258
25.38	2.9864
25.39	2.92949
25.4	2.93343
25.41	2.97784
25.42	2.98409
25.43	2.95317
25.44	2.93277
25.45	2.97028
25.46	2.95251
25.47	2.94462
25.48	2.96041
25.49	2.95317
25.5	2.95153
25.51	2.93935
25.52	2.95185
25.53	2.9683
25.54	2.92554
25.55	2.96205
25.56	2.94429
25.57	2.95021
25.58	2.96435
25.59	2.95778
25.6	2.99067
25.61	2.94396
25.62	2.94922
25.63	2.9535
25.64	2.96271
25.65	2.95876
25.66	2.96764
25.67	2.97028
25.68	2.93541
25.69	2.94889
25.7	2.94856
25.71	2.94363
25.72	2.91435
25.73	2.94988
25.74	2.94922
25.75	2.94264
25.76	2.94626
25.77	2.91797
25.78	2.93113
25.79	2.92159
25.8	2.94034
25.81	2.9581
25.82	2.92225
25.83	2.90909
25.84	2.95975
25.85	2.93672
25.86	2.95679
25.87	2.95547
25.88	2.96074
25.89	2.96699
25.9	2.91534
25.91	2.95909
25.92	2.92389
25.93	2.92587
25.94	2.97949
25.95	2.95153
25.96	2.95021
25.97	2.93475
25.98	2.95942
25.99	2.98672
26	2.9808
26.01	2.95449
26.02	2.94297
26.03	2.92784
26.04	2.96205
26.05	2.92422
26.06	2.92685
26.07	2.93475
26.08	2.96732
26.09	2.95975
26.1	2.99133
26.11	3.00251
26.12	2.9581
26.13	2.95482
26.14	2.96403
26.15	2.95251
26.16	2.93442
26.17	2.91962
26.18	2.96468
26.19	2.9762
26.2	2.94429
26.21	2.93738
26.22	2.97389
26.23	2.97028
26.24	2.97455
26.25	2.93606
26.26	2.95942
26.27	2.96633
26.28	2.97061
26.29	2.97521
26.3	2.9387
26.31	2.96074
26.32	2.94034
26.33	2.966
26.34	2.96403
26.35	2.96205
26.36	2.96041
26.37	2.97422
26.38	2.95383
26.39	2.92652
26.4	2.9308
26.41	2.91896
26.42	2.95317
26.43	2.98212
26.44	2.92652
26.45	2.9262
26.46	2.92817
26.47	2.9433
26.48	2.95745
26.49	2.93935
26.5	2.91764
26.51	2.941
26.52	2.94133
26.53	2.95251
26.54	2.96699
26.55	2.96238
26.56	2.91896
26.57	2.92159
26.58	2.94495
26.59	2.97192
26.6	2.92949
26.61	2.94001
26.62	2.98047
26.63	2.94791
26.64	2.97225
26.65	2.97324
26.66	2.97061
26.67	2.96797
26.68	2.95416
26.69	2.95778
26.7	2.93837
26.71	2.94955
26.72	2.97587
26.73	2.96896
26.74	2.9558
26.75	2.93245
26.76	2.95185
26.77	2.9637
26.78	2.97817
26.79	2.95876
26.8	2.94001
26.81	2.9456
26.82	2.9308
26.83	2.95087
26.84	2.94856
26.85	2.96403
26.86	2.92291
26.87	2.95745
26.88	2.96205
26.89	2.94231
26.9	2.91205
26.91	2.96139
26.92	2.96205
26.93	2.96995
26.94	2.9262
26.95	2.94034
26.96	2.92981
26.97	2.99363
26.98	2.94889
26.99	2.9331
27	2.96139
27.01	2.96929
27.02	2.95416
27.03	2.94922
27.04	2.95712
27.05	2.94495
27.06	2.93606
27.07	2.94659
27.08	2.9387
27.09	2.94856
27.1	2.9456
27.11	2.94264
27.12	2.95185
27.13	2.95185
27.14	2.92981
27.15	2.96271
27.16	2.94528
27.17	2.93376
27.18	2.95185
27.19	2.9456
27.2	2.93935
27.21	2.94166
27.22	2.96139
27.23	2.92192
27.24	2.9456
27.25	2.941
27.26	2.94692
27.27	2.96863
27.28	2.96074
27.29	2.9308
27.3	2.94166
27.31	2.93146
27.32	2.93212
27.33	2.97784
27.34	2.94593
27.35	2.93376
27.36	2.93179
27.37	2.96468
27.38	2.98278
27.39	2.92652
27.4	2.9331
27.41	2.94626
27.42	2.9331
27.43	2.92784
27.44	2.92817
27.45	2.9285
27.46	2.96435
27.47	2.95087
27.48	2.9683
27.49	2.96666
27.5	2.95317
27.51	2.94166
27.52	2.94626
27.53	2.95778
27.54	2.95087
27.55	2.93014
27.56	2.94133
27.57	2.94067
27.58	2.94067
27.59	2.99593
27.6	2.95383
27.61	2.94725
27.62	2.94297
27.63	2.95218
27.64	2.95745
27.65	2.95482
27.66	2.92751
27.67	2.941
27.68	2.91435
27.69	2.92027
27.7	2.94791
27.71	2.95218
27.72	2.94791
27.73	2.95547
27.74	2.93113
27.75	2.96403
27.76	2.96403
27.77	2.94495
27.78	2.93343
27.79	2.96666
27.8	2.97455
27.81	2.97093
27.82	2.95712
27.83	2.9808
27.84	2.96567
27.85	2.95449
27.86	2.96567
27.87	2.9433
27.88	2.95909
27.89	2.96633
27.9	2.94462
27.91	2.93837
27.92	2.92356
27.93	2.94199
27.94	2.94067
27.95	2.94067
27.96	2.95449
27.97	2.94856
27.98	2.95087
27.99	2.96732
28	2.93014
28.01	2.9637
28.02	2.95909
28.03	2.96666
28.04	2.96962
28.05	2.96863
28.06	2.95843
28.07	2.95778
28.08	2.966
28.09	2.9285
28.1	2.94001
28.11	2.94791
28.12	2.95909
28.13	2.94396
28.14	2.93705
28.15	2.94659
28.16	2.95317
28.17	2.93442
28.18	2.93606
28.19	2.93442
28.2	2.95547
28.21	2.98047
28.22	2.95514
28.23	2.93113
28.24	2.9206
28.25	2.94955
28.26	2.98409
28.27	2.95317
28.28	2.94528
28.29	2.95646
28.3	2.94692
28.31	2.92685
28.32	2.95021
28.33	2.97126
28.34	2.94462
28.35	2.95251
28.36	2.94264
28.37	2.91205
28.38	2.97587
28.39	2.95547
28.4	2.97291
28.41	2.96929
28.42	2.92389
28.43	2.93771
28.44	2.90777
28.45	2.92784
28.46	2.9206
28.47	2.97225
28.48	2.9512
28.49	2.9308
28.5	2.97192
28.51	2.95778
28.52	2.95218
28.53	2.96534
28.54	2.98541
28.55	2.95646
28.56	2.95514
28.57	2.95054
28.58	2.92883
28.59	2.92027
28.6	2.95778
28.61	2.93277
28.62	2.94231
28.63	2.96304
28.64	2.95975
28.65	2.94231
28.66	2.97159
28.67	2.95251
28.68	2.92949
28.69	2.95317
28.7	2.94528
28.71	2.94495
28.72	2.95843
28.73	2.93442
28.74	2.93376
28.75	2.96633
28.76	2.96534
28.77	2.96929
28.78	2.93705
28.79	2.96962
28.8	2.96732
28.81	2.97784
28.82	2.97357
28.83	2.96435
28.84	2.95613
28.85	2.9637
28.86	2.98014
28.87	2.95547
28.88	2.94001
28.89	2.95876
28.9	2.9683
28.91	2.94528
28.92	2.97028
28.93	2.92356
28.94	2.94133
28.95	2.94626
28.96	2.94067
28.97	2.94528
28.98	2.95284
28.99	2.95843
29	2.94856
29.01	2.96863
29.02	2.96962
29.03	2.95482
29.04	2.92488
29.05	2.94955
29.06	2.966
29.07	2.99988
29.08	2.96929
29.09	2.94922
29.1	2.92225
29.11	2.9433
29.12	2.95284
29.13	2.97389
29.14	2.97093
29.15	2.97718
29.16	2.92093
29.17	2.94856
29.18	2.93771
29.19	2.94593
29.2	2.94856
29.21	2.95745
29.22	2.98047
29.23	2.92784
29.24	2.91534
29.25	2.96534
29.26	2.96172
29.27	2.93475
29.28	2.92784
29.29	2.94133
29.3	2.94593
29.31	2.95778
29.32	2.96863
29.33	2.9058
29.34	2.94495
29.35	2.93705
29.36	2.95712
29.37	2.94659
29.38	2.95843
29.39	2.9535
29.4	2.9456
29.41	2.96403
29.42	2.98278
29.43	2.98508
29.44	2.93672
29.45	2.9331
29.46	2.94231
29.47	2.94659
29.48	2.97686
29.49	2.97126
29.5	2.94692
29.51	2.95909
29.52	2.95153
29.53	2.92291
29.54	2.95482
29.55	2.92554
29.56	2.95416
29.57	2.93771
29.58	2.92784
29.59	2.93705
29.6	2.93376
29.61	2.91995
29.62	2.91764
29.63	2.96699
29.64	2.95646
29.65	2.93771
29.66	2.95021
29.67	2.96139
29.68	2.94133
29.69	2.9512
29.7	2.97225
29.71	2.96863
29.72	2.93541
29.73	2.94824
29.74	2.94001
29.75	2.93376
29.76	2.95745
29.77	2.93606
29.78	2.96435
29.79	2.96271
29.8	2.97061
29.81	2.95843
29.82	2.97258
29.83	2.9762
29.84	2.94725
29.85	2.98409
29.86	2.95153
29.87	2.94955
29.88	2.95185
29.89	2.92587
29.9	2.98409
29.91	2.94725
29.92	2.94199
29.93	2.93047
29.94	2.94264
29.95	2.93442
29.96	2.94001
29.97	2.9512
29.98	2.94626
29.99	2.93541
30	2.93541
30.01	2.96534
30.02	2.97357
30.03	2.9433
30.04	2.93606
30.05	2.95021
30.06	2.96074
30.07	2.93606
30.08	2.9683
30.09	2.95843
30.1	2.94462
30.11	2.93771
30.12	2.91172
30.13	2.94758
30.14	2.96863
30.15	2.96863
30.16	2.91435
30.17	2.9535
30.18	2.95054
30.19	2.93672
30.2	2.94001
30.21	2.94133
30.22	2.94626
30.23	2.94034
30.24	2.94034
30.25	2.96962
30.26	2.96962
30.27	2.95679
30.28	2.95251
30.29	2.93475
30.3	2.94856
30.31	2.95975
30.32	2.94396
30.33	2.96238
30.34	2.94922
30.35	2.91567
30.36	2.91468
30.37	2.93376
30.38	2.91797
30.39	2.9456
30.4	2.94593
30.41	2.95514
30.42	2.97982
30.43	2.95317
30.44	2.95613
30.45	2.92455
30.46	2.94988
30.47	2.9433
30.48	2.95778
30.49	2.95383
30.5	2.93409
30.51	2.97093
30.52	2.95416
30.53	2.94626
30.54	2.91666
30.55	2.94429
30.56	2.93212
30.57	2.94166
30.58	2.93935
30.59	2.95975
30.6	2.93047
30.61	2.94758
30.62	2.96238
30.63	2.9558
30.64	2.93179
30.65	2.93343
30.66	2.96041
30.67	2.9387
30.68	2.93771
30.69	2.94067
30.7	2.97258
30.71	2.96304
30.72	2.95876
30.73	2.96172
30.74	2.94758
30.75	2.94889
30.76	2.96764
30.77	2.93837
30.78	2.93376
30.79	2.97653
30.8	2.97225
30.81	2.96008
30.82	2.96633
30.83	2.97159
30.84	2.96764
30.85	2.97028
30.86	2.96797
30.87	2.9558
30.88	2.93376
30.89	2.93705
30.9	2.95021
30.91	2.98936
30.92	2.941
30.93	2.97061
30.94	2.91501
30.95	2.90646
30.96	2.93014
30.97	2.97061
30.98	2.94725
30.99	2.96929
31	2.92554
31.01	2.92883
31.02	2.95284
31.03	2.95021
31.04	2.92554
31.05	2.96139
31.06	2.92751
31.07	2.93343
31.08	2.94922
31.09	2.95514
31.1	2.9637
31.11	2.95514
31.12	2.97093
31.13	2.96271
31.14	2.93935
31.15	2.95712
31.16	2.9456
31.17	2.9785
31.18	2.96435
31.19	2.9581
31.2	2.95482
31.21	2.90218
31.22	2.90777
31.23	2.96797
31.24	2.97357
31.25	2.95778
31.26	2.97225
31.27	2.94692
31.28	2.92488
31.29	2.91995
31.3	2.9308
31.31	2.9433
31.32	2.90613
31.33	2.95843
31.34	2.96962
31.35	2.94758
31.36	2.94264
31.37	2.95514
31.38	2.95646
31.39	2.94429
31.4	2.93672
31.41	2.94889
31.42	2.95449
31.43	2.96107
31.44	2.95613
31.45	2.95646
31.46	2.93014
31.47	2.9081
31.48	2.9558
31.49	2.93179
31.5	2.91863
31.51	2.89067
31.52	2.99166
31.53	3.00876
31.54	2.92718
31.55	2.92784
31.56	2.9535
31.57	2.93047
31.58	2.95185
31.59	2.96764
31.6	2.92718
31.61	2.92291
31.62	2.94166
31.63	2.92817
31.64	2.96041
31.65	2.97718
31.66	2.95185
31.67	2.96271
31.68	2.94824
31.69	2.93738
31.7	2.94626
31.71	2.96962
31.72	2.96501
31.73	2.96304
31.74	2.93245
31.75	2.941
31.76	2.95679
31.77	2.95218
31.78	2.99199
31.79	2.96435
31.8	2.9637
31.81	2.98146
31.82	2.91633
31.83	2.95317
31.84	2.96699
31.85	2.96863
31.86	2.94922
31.87	2.96501
31.88	2.93047
31.89	2.96139
31.9	2.95679
31.91	2.93837
31.92	2.96107
31.93	2.91896
31.94	2.93672
31.95	2.96304
31.96	2.96699
31.97	2.97686
31.98	2.96732
31.99	2.95021
32	2.96567
32.01	2.94692
32.02	2.94297
32.03	2.95843
32.04	2.97028
32.05	2.94067
32.06	2.95679
32.07	2.93639
32.08	2.9308
32.09	2.93935
32.1	2.93837
32.11	2.96699
32.12	2.96139
32.13	2.92291
32.14	2.91567
32.15	2.9762
32.16	2.95449
32.17	2.92258
32.18	2.94495
32.19	2.93968
32.2	2.94856
32.21	2.93376
32.22	2.96896
32.23	2.94133
32.24	2.95613
32.25	2.96337
32.26	2.95284
32.27	2.97192
32.28	2.95679
32.29	2.95153
32.3	2.95482
32.31	2.966
32.32	2.9433
32.33	2.98146
32.34	2.93903
32.35	2.94297
32.36	2.93705
32.37	2.96666
32.38	2.97949
32.39	2.93541
32.4	2.94528
32.41	2.97324
32.42	2.95251
32.43	2.94593
32.44	2.95218
32.45	2.93442
32.46	2.95383
32.47	2.94166
32.48	2.92652
32.49	2.93442
32.5	2.94495
32.51	2.96435
32.52	2.93508
32.53	2.97028
32.54	2.95778
32.55	2.97916
32.56	2.92192
32.57	2.90843
32.58	2.9512
32.59	2.96139
32.6	2.90843
32.61	2.93014
32.62	2.96074
32.63	2.9535
32.64	2.94922
32.65	2.93277
32.66	2.97357
32.67	2.97093
32.68	2.95449
32.69	2.95745
32.7	2.95449
32.71	2.97883
32.72	2.93146
32.73	2.94001
32.74	2.95745
32.75	2.92554
32.76	2.92685
32.77	2.91929
32.78	2.9535
32.79	2.93541
32.8	2.94429
32.81	2.96633
32.82	2.96074
32.83	2.9512
32.84	2.93409
32.85	2.93968
32.86	2.93541
32.87	2.95284
32.88	2.96205
32.89	2.93837
32.9	2.94791
32.91	2.97126
32.92	2.95547
32.93	2.96074
32.94	2.96699
32.95	2.93343
32.96	2.93146
32.97	2.96337
32.98	2.96501
32.99	2.97159
33	2.966
33.01	2.94758
33.02	2.93837
33.03	2.94429
33.04	2.94593
33.05	2.99199
33.06	2.96666
33.07	2.95218
33.08	2.94922
33.09	2.88738
33.1	2.94659
33.11	2.9785
33.12	2.94988
33.13	2.9433
33.14	2.91995
33.15	2.93179
33.16	2.93508
33.17	2.94626
33.18	2.93541
33.19	2.94166
33.2	2.93705
33.21	2.92521
33.22	2.92389
33.23	2.94495
33.24	2.95251
33.25	2.96501
33.26	2.96041
33.27	2.92027
33.28	2.89823
33.29	2.96107
33.3	2.96764
33.31	2.94988
33.32	2.92718
33.33	2.94791
33.34	2.96929
33.35	2.96139
33.36	2.94264
33.37	2.94725
33.38	2.9285
33.39	2.95514
33.4	2.95547
33.41	2.91567
33.42	2.92784
33.43	2.94856
33.44	2.95613
33.45	2.94725
33.46	2.94922
33.47	2.9285
33.48	2.93245
33.49	2.9683
33.5	2.94528
33.51	2.93968
33.52	2.94034
33.53	2.95745
33.54	2.96107
33.55	2.94001
33.56	2.96962
33.57	2.95284
33.58	2.9433
33.59	2.98508
33.6	2.94429
33.61	2.95679
33.62	2.94725
33.63	2.94429
33.64	2.94297
33.65	2.91435
33.66	2.94593
33.67	2.95712
33.68	2.96271
33.69	2.99857
33.7	2.94396
33.71	2.96008
33.72	2.95547
33.73	2.95317
33.74	2.91995
33.75	2.91534
33.76	2.91468
33.77	2.9456
33.78	2.95153
33.79	2.96271
33.8	2.9433
33.81	2.93672
33.82	2.95284
33.83	2.97653
33.84	2.97982
33.85	2.95613
33.86	2.92949
33.87	2.96501
33.88	2.94626
33.89	2.94199
33.9	2.88442
33.91	2.93475
33.92	2.93508
33.93	2.91468
33.94	2.92949
33.95	2.92554
33.96	2.96041
33.97	2.92455
33.98	2.93705
33.99	2.92784
34	2.91995
34.01	2.93771
34.02	2.94462
34.03	2.97324
34.04	2.95087
34.05	2.9683
34.06	2.96764
34.07	2.94856
34.08	2.94659
34.09	2.93574
34.1	2.95646
34.11	2.92718
34.12	2.91238
34.13	2.94725
34.14	2.93935
34.15	2.95153
34.16	2.93837
34.17	2.97225
34.18	2.94166
34.19	2.96304
34.2	2.96567
34.21	2.94429
34.22	2.966
34.23	2.98771
34.24	2.98376
34.25	2.96172
34.26	2.94363
34.27	2.94001
34.28	2.95054
34.29	2.96435
34.3	2.92817
34.31	2.95054
34.32	2.96238
34.33	2.94791
34.34	2.96304
34.35	2.9581
34.36	2.91797
34.37	2.93475
34.38	2.94791
34.39	2.94264
34.4	2.94922
34.41	2.93903
34.42	2.92784
34.43	2.96501
34.44	2.96435
34.45	2.95547
34.46	2.95679
34.47	2.92949
34.48	2.94363
34.49	2.941
34.5	2.96139
34.51	2.94659
34.52	2.94231
34.53	2.96041
34.54	2.9785
34.55	2.95646
34.56	2.96929
34.57	2.94396
34.58	2.91468
34.59	2.93409
34.6	2.9262
34.61	2.9308
34.62	2.93212
34.63	2.95942
34.64	2.95185
34.65	2.96008
34.66	2.96435
34.67	2.95383
34.68	2.96304
34.69	2.97159
34.7	2.97455
34.71	2.94791
34.72	2.92455
34.73	2.941
34.74	2.95482
34.75	2.94692
34.76	2.92916
34.77	2.93179
34.78	2.95087
34.79	2.93343
34.8	2.94593
34.81	2.95975
34.82	2.93409
34.83	2.94264
34.84	2.93179
34.85	2.95745
34.86	2.94528
34.87	2.93376
34.88	2.93705
34.89	2.95613
34.9	2.95383
34.91	2.9512
34.92	2.92751
34.93	2.91797
34.94	2.90119
34.95	2.95975
34.96	2.98968
34.97	2.96633
34.98	2.95778
34.99	2.94791
35	2.95547
35.01	2.94067
35.02	2.93903
35.03	2.9512
35.04	2.95646
35.05	2.95416
35.06	2.95514
35.07	2.93705
35.08	2.96205
35.09	2.96435
35.1	2.93179
35.11	2.94955
35.12	2.92916
35.13	2.97126
35.14	2.94593
35.15	2.95942
35.16	2.9558
35.17	2.95449
35.18	2.97389
35.19	2.94034
35.2	2.91337
35.21	2.93804
35.22	2.9387
35.23	2.93968
35.24	2.94856
35.25	2.97258
35.26	2.98409
35.27	2.93606
35.28	2.94001
35.29	2.94264
35.3	2.96205
35.31	2.96896
35.32	2.96929
35.33	2.93212
35.34	2.92389
35.35	2.94264
35.36	2.92949
35.37	2.94495
35.38	2.94034
35.39	2.97422
35.4	2.94297
35.41	2.92652
35.42	2.96863
35.43	2.97982
35.44	2.96501
35.45	2.94495
35.46	2.96764
35.47	2.941
35.48	2.93541
35.49	2.97159
35.5	2.96995
35.51	2.94659
35.52	2.92587
35.53	2.92916
35.54	2.95646
35.55	2.94462
35.56	2.95646
35.57	2.9456
35.58	2.95251
35.59	2.96008
35.6	2.95646
35.61	2.95745
35.62	2.97159
35.63	2.94758
35.64	2.94593
35.65	2.9331
35.66	2.9512
35.67	2.94396
35.68	2.95054
35.69	2.97159
35.7	2.95383
35.71	2.94758
35.72	2.94659
35.73	2.93804
35.74	2.95712
35.75	2.94166
35.76	2.93837
35.77	2.94889
35.78	2.96337
35.79	2.9387
35.8	2.94133
35.81	2.90317
35.82	2.9262
35.83	2.91468
35.84	2.91337
35.85	2.96172
35.86	2.94626
35.87	2.92817
35.88	2.96666
35.89	3.00613
35.9	2.98179
35.91	2.94824
35.92	2.95054
35.93	2.94067
35.94	2.94856
35.95	2.94593
35.96	2.94889
35.97	2.92324
35.98	2.95284
35.99	2.96238
36	2.95383
36.01	2.94758
36.02	2.94133
36.03	2.96633
36.04	2.95185
36.05	2.95482
36.06	2.93705
36.07	2.91238
36.08	2.9637
36.09	2.96271
36.1	2.93146
36.11	2.94528
36.12	2.92883
36.13	2.90251
36.14	2.93639
36.15	2.92652
36.16	2.96633
36.17	2.94001
36.18	2.94889
36.19	2.93903
36.2	2.96896
36.21	2.9512
36.22	2.95547
36.23	2.9456
36.24	2.94034
36.25	2.93146
36.26	2.95613
36.27	2.9456
36.28	2.9433
36.29	2.96666
36.3	2.94199
36.31	2.94363
36.32	2.95317
36.33	2.96896
36.34	2.96008
36.35	2.93475
36.36	2.97521
36.37	2.93442
36.38	2.94528
36.39	2.93047
36.4	2.94429
36.41	2.97126
36.42	2.95317
36.43	2.94133
36.44	2.95383
36.45	2.95383
36.46	2.95712
36.47	2.94889
36.48	2.9785
36.49	2.93179
36.5	2.94692
36.51	2.9558
36.52	2.98343
36.53	2.9308
36.54	2.96337
36.55	2.95482
36.56	2.96403
36.57	2.93903
36.58	2.95153
36.59	2.97028
36.6	2.97291
36.61	2.96205
36.62	2.90712
36.63	2.95284
36.64	2.94396
36.65	2.96107
36.66	2.96205
36.67	2.94856
36.68	2.93343
36.69	2.97093
36.7	2.96995
36.71	2.98903
36.72	2.93771
36.73	2.96238
36.74	2.95778
36.75	2.95087
36.76	2.96403
36.77	2.9535
36.78	2.96304
36.79	2.92949
36.8	2.91633
36.81	2.9785
36.82	2.96699
36.83	2.92521
36.84	2.93968
36.85	2.97028
36.86	2.94001
36.87	2.94889
36.88	2.95646
36.89	2.94231
36.9	2.94001
36.91	2.94297
36.92	2.95514
36.93	2.93606
36.94	2.92718
36.95	2.97357
36.96	2.96238
36.97	2.95909
36.98	2.96435
36.99	2.95745
37	2.94725
37.01	2.9262
37.02	2.94231
37.03	2.95712
37.04	2.96304
37.05	2.93277
37.06	2.94199
37.07	2.97686
37.08	2.94758
37.09	2.93343
37.1	2.96107
37.11	2.94659
37.12	2.92883
37.13	2.94133
37.14	2.9456
37.15	2.94495
37.16	2.98574
37.17	2.94396
37.18	2.97258
37.19	2.98936
37.2	2.96041
37.21	2.90843
37.22	2.93212
37.23	2.96403
37.24	2.95679
37.25	2.94528
37.26	2.93047
37.27	2.9433
37.28	2.95087
37.29	2.9081
37.3	2.93574
37.31	2.96074
37.32	2.95482
37.33	2.94528
37.34	2.97159
37.35	2.96666
37.36	2.95646
37.37	2.94593
37.38	2.93343
37.39	2.90876
37.4	2.94922
37.41	2.93146
37.42	2.94199
37.43	2.95547
37.44	2.97291
37.45	2.96008
37.46	2.91962
37.47	2.95547
37.48	2.94495
37.49	2.94001
37.5	2.94659
37.51	2.94593
37.52	2.95284
37.53	2.94922
37.54	2.94725
37.55	2.95449
37.56	2.9387
37.57	2.91863
37.58	2.95679
37.59	2.94462
37.6	2.94692
37.61	2.93935
37.62	2.97554
37.63	2.96074
37.64	2.92027
37.65	2.9433
37.66	2.97916
37.67	2.96403
37.68	2.93804
37.69	2.95449
37.7	2.94034
37.71	2.92258
37.72	2.96107
37.73	2.93113
37.74	2.95185
37.75	2.94856
37.76	2.95843
37.77	2.95153
37.78	2.92422
37.79	2.93475
37.8	2.91304
37.81	2.95185
37.82	2.95482
37.83	2.92225
37.84	2.96074
37.85	2.93574
37.86	2.95482
37.87	2.96567
37.88	2.9456
37.89	2.94758
37.9	2.96205
37.91	2.94758
37.92	2.916
37.93	2.95021
37.94	2.94199
37.95	2.94199
37.96	2.92324
37.97	2.92587
37.98	2.94067
37.99	2.97422
38	2.99528
38.01	2.941
38.02	2.98607
38.03	2.98376
38.04	2.96238
38.05	2.91073
38.06	2.94034
38.07	2.95778
38.08	2.96238
38.09	2.93574
38.1	2.9308
38.11	2.95613
38.12	2.96633
38.13	2.93968
38.14	2.91698
38.15	2.95153
38.16	2.941
38.17	2.91337
38.18	2.92027
38.19	2.97357
38.2	2.9535
38.21	2.94264
38.22	2.91468
38.23	2.93343
38.24	2.93738
38.25	2.93541
38.26	2.93179
38.27	2.9285
38.28	2.93574
38.29	2.9456
38.3	2.92192
38.31	2.94001
38.32	2.95054
38.33	2.93705
38.34	2.93606
38.35	2.95284
38.36	2.92159
38.37	2.93047
38.38	2.94922
38.39	2.9387
38.4	2.93639
38.41	2.97653
38.42	2.95778
38.43	2.94791
38.44	2.96172
38.45	2.93606
38.46	2.90646
38.47	2.93639
38.48	2.96271
38.49	2.9262
38.5	2.94067
38.51	2.90613
38.52	2.94626
38.53	2.94725
38.54	2.90843
38.55	2.93343
38.56	2.92356
38.57	2.95909
38.58	2.91731
38.59	2.93639
38.6	2.96995
38.61	2.95482
38.62	2.96172
38.63	2.94528
38.64	2.95153
38.65	2.96764
38.66	2.94791
38.67	2.9456
38.68	2.93277
38.69	2.91896
38.7	2.94462
38.71	2.93903
38.72	2.95383
38.73	2.9512
38.74	2.93409
38.75	2.92949
38.76	2.9456
38.77	2.96304
38.78	2.93903
38.79	2.95383
38.8	2.95054
38.81	2.96896
38.82	2.93606
38.83	2.92422
38.84	2.94528
38.85	2.95218
38.86	2.93574
38.87	2.9581
38.88	2.94692
38.89	2.91797
38.9	2.9387
38.91	2.97751
38.92	2.96699
38.93	2.9433
38.94	2.93541
38.95	2.94396
38.96	2.96732
38.97	2.95054
38.98	2.95449
38.99	2.92389
39	2.94725
39.01	2.93968
39.02	2.92949
39.03	2.94528
39.04	2.94462
39.05	2.94528
39.06	2.9535
39.07	2.96797
39.08	2.93968
39.09	2.97192
39.1	2.93574
39.11	2.93376
39.12	2.94824
39.13	2.94626
39.14	2.93639
39.15	2.95054
39.16	2.97521
39.17	2.96995
39.18	2.97126
39.19	2.94199
39.2	2.95185
39.21	2.95185
39.22	2.93047
39.23	2.97258
39.24	2.96271
39.25	2.95087
39.26	2.92652
39.27	2.94133
39.28	2.9558
39.29	2.95153
39.3	2.95843
39.31	2.93968
39.32	2.96172
39.33	2.9808
39.34	2.94988
39.35	2.91995
39.36	2.95317
39.37	2.92784
39.38	2.93771
39.39	2.97126
39.4	2.95547
39.41	2.94429
39.42	2.96699
39.43	2.91764
39.44	2.9433
39.45	2.92389
39.46	2.93606
39.47	2.93672
39.48	2.96797
39.49	2.95843
39.5	2.98574
39.51	2.94626
39.52	2.93903
39.53	2.93968
39.54	2.91534
39.55	2.92225
39.56	2.94955
39.57	2.9558
39.58	2.95547
39.59	2.92883
39.6	2.95054
39.61	2.91501
39.62	2.966
39.63	2.92751
39.64	2.95909
39.65	2.96271
39.66	2.96074
39.67	2.95416
39.68	2.92784
39.69	2.94034
39.7	2.94824
39.71	2.95843
39.72	2.95153
39.73	2.94001
39.74	2.95251
39.75	2.98607
39.76	2.97159
39.77	2.96238
39.78	2.98014
39.79	2.97521
39.8	2.94363
39.81	2.90152
39.82	2.94231
39.83	2.96172
39.84	2.93409
39.85	2.9581
39.86	2.95843
39.87	2.95482
39.88	2.96699
39.89	2.95778
39.9	2.93047
39.91	2.95745
39.92	2.94824
39.93	2.96107
39.94	2.96797
39.95	2.96074
39.96	2.94363
39.97	2.92356
39.98	2.93837
39.99	2.9262
40	2.93935
40.01	2.92324
40.02	2.97159
40.03	2.95416
40.04	2.97126
40.05	2.93277
40.06	2.94166
40.07	2.94725
40.08	2.93212
40.09	2.93837
40.1	2.92718
40.11	2.92817
40.12	2.93376
40.13	2.92916
40.14	2.94462
40.15	2.93771
40.16	2.95251
40.17	2.98113
40.18	2.93277
40.19	2.93771
40.2	2.91764
40.21	2.94495
40.22	2.94758
40.23	2.95712
40.24	2.94758
40.25	2.96403
40.26	2.95383
40.27	2.97093
40.28	2.96041
40.29	2.94231
40.3	2.93705
40.31	2.92981
40.32	2.95712
40.33	2.941
40.34	2.93837
40.35	2.97389
40.36	2.97982
40.37	2.93705
40.38	2.93903
40.39	2.93804
40.4	2.96797
40.41	2.96896
40.42	2.93606
40.43	2.93508
40.44	2.96008
40.45	2.92521
40.46	2.94725
40.47	2.9637
40.48	2.93606
40.49	2.94955
40.5	2.93574
40.51	2.93738
40.52	2.96403
40.53	2.93672
40.54	2.916
40.55	2.93606
40.56	2.94034
40.57	2.96764
40.58	2.95054
40.59	2.92883
40.6	2.96666
40.61	2.93574
40.62	2.95416
40.63	2.95975
40.64	2.97291
40.65	2.95712
40.66	2.94001
40.67	2.93738
40.68	2.92422
40.69	2.95087
40.7	2.93574
40.71	2.92389
40.72	2.94824
40.73	2.94166
40.74	2.95153
40.75	2.94659
40.76	2.9183
40.77	2.93409
40.78	2.96238
40.79	2.95218
40.8	2.94955
40.81	2.96896
40.82	2.93705
40.83	2.90646
40.84	2.94495
40.85	2.94725
40.86	2.93508
40.87	2.95054
40.88	2.93574
40.89	2.94988
40.9	2.91995
40.91	2.91468
40.92	2.92554
40.93	2.93935
40.94	2.94692
40.95	2.93475
40.96	2.93903
40.97	2.96896
40.98	2.96962
40.99	2.9456
41	2.94495
41.01	2.95778
41.02	2.91567
41.03	2.94199
41.04	2.95317
41.05	2.90251
41.06	2.95778
41.07	2.94133
41.08	2.93738
41.09	2.91468
41.1	2.94988
41.11	2.94593
41.12	2.95087
41.13	2.94396
41.14	2.92027
41.15	2.94824
41.16	2.93935
41.17	2.93935
41.18	2.93903
41.19	2.92258
41.2	2.91041
41.21	2.94133
41.22	2.95317
41.23	2.96797
41.24	2.96468
41.25	2.98475
41.26	2.95547
41.27	2.92554
41.28	2.91501
41.29	2.92126
41.3	2.9456
41.31	2.94725
41.32	2.95383
41.33	2.96764
41.34	2.94067
41.35	2.94297
41.36	2.94429
41.37	2.93574
41.38	2.92291
41.39	2.91995
41.4	2.94824
41.41	2.94166
41.42	2.966
41.43	2.94067
41.44	2.89626
41.45	2.92652
41.46	2.91633
41.47	2.98146
41.48	2.94034
41.49	2.94166
41.5	2.93047
41.51	2.94495
41.52	2.9206
41.53	2.93705
41.54	2.95054
41.55	2.97455
41.56	2.94231
41.57	2.94889
41.58	2.94067
41.59	2.94988
41.6	2.93343
41.61	2.89856
41.62	2.90646
41.63	2.90152
41.64	2.94528
41.65	2.97061
41.66	2.97389
41.67	2.9456
41.68	2.94396
41.69	2.95975
41.7	2.9535
41.71	2.93212
41.72	2.91106
41.73	2.89823
41.74	2.93146
41.75	2.94824
41.76	2.96337
41.77	2.92981
41.78	2.96896
41.79	2.94495
41.8	2.97126
41.81	2.91139
41.82	2.92916
41.83	2.94856
41.84	2.93508
41.85	2.92488
41.86	2.941
41.87	2.96403
41.88	2.96699
41.89	2.94462
41.9	2.96008
41.91	2.96271
41.92	2.95383
41.93	2.95613
41.94	2.9433
41.95	2.94231
41.96	2.94824
41.97	2.92883
41.98	2.94856
41.99	2.95185
42	2.95021
42.01	2.92455
42.02	2.93771
42.03	2.94791
42.04	2.90777
42.05	2.92159
42.06	2.92554
42.07	2.92587
42.08	2.88804
42.09	2.92587
42.1	2.93639
42.11	2.93245
42.12	2.96567
42.13	2.95975
42.14	2.94725
42.15	2.94922
42.16	2.98047
42.17	2.9637
42.18	2.96205
42.19	2.92521
42.2	2.9137
42.21	2.94791
42.22	2.95021
42.23	2.91633
42.24	2.9762
42.25	2.95778
42.26	2.92192
42.27	2.93771
42.28	2.96732
42.29	2.93146
42.3	2.94363
42.31	2.9206
42.32	2.9535
42.33	2.95843
42.34	2.93442
42.35	2.92916
42.36	2.96633
42.37	2.94363
42.38	2.95087
42.39	2.96435
42.4	2.92981
42.41	2.94199
42.42	2.91731
42.43	2.9331
42.44	2.95909
42.45	2.94363
42.46	2.96764
42.47	2.95317
42.48	2.95646
42.49	2.93014
42.5	2.94528
42.51	2.92554
42.52	2.91929
42.53	2.95449
42.54	2.93376
42.55	2.9081
42.56	2.91139
42.57	2.9433
42.58	2.9581
42.59	2.9262
42.6	2.92455
42.61	2.94528
42.62	2.95284
42.63	2.95087
42.64	2.93672
42.65	2.9387
42.66	2.94856
42.67	2.93672
42.68	2.94166
42.69	2.9456
42.7	2.94955
42.71	2.94824
42.72	2.93212
42.73	2.96896
42.74	2.9456
42.75	2.92817
42.76	2.93574
42.77	2.94955
42.78	2.89133
42.79	2.95021
42.8	2.92554
42.81	2.96534
42.82	2.94166
42.83	2.94001
42.84	2.96172
42.85	2.9183
42.86	2.93804
42.87	2.93212
42.88	2.94297
42.89	2.9808
42.9	2.95843
42.91	2.92981
42.92	2.94199
42.93	2.92587
42.94	2.92784
42.95	2.94659
42.96	2.97554
42.97	2.92126
42.98	2.92784
42.99	2.88573
43	2.9035
43.01	2.93771
43.02	2.90745
43.03	2.93606
43.04	2.94001
43.05	2.92784
43.06	2.93475
43.07	2.92718
43.08	2.94495
43.09	2.95317
43.1	2.94528
43.11	2.93146
43.12	2.91501
43.13	2.95317
43.14	2.96962
43.15	2.9512
43.16	2.92883
43.17	2.92685
43.18	2.92718
43.19	2.93606
43.2	2.9433
43.21	2.94429
43.22	2.92554
43.23	2.94133
43.24	2.95284
43.25	2.92817
43.26	2.95449
43.27	2.95218
43.28	2.94692
43.29	2.9331
43.3	2.91073
43.31	2.95284
43.32	2.94166
43.33	2.91962
43.34	2.91567
43.35	2.9535
43.36	2.94462
43.37	2.98146
43.38	2.9331
43.39	2.95613
43.4	2.93935
43.41	2.92883
43.42	2.96074
43.43	2.95646
43.44	2.92883
43.45	2.94725
43.46	2.94462
43.47	2.93442
43.48	2.92652
43.49	2.9285
43.5	2.96139
43.51	2.91271
43.52	2.97093
43.53	2.97192
43.54	2.91896
43.55	2.92883
43.56	2.89889
43.57	2.90514
43.58	2.91435
43.59	2.93935
43.6	2.93343
43.61	2.92981
43.62	2.95514
43.63	2.941
43.64	2.96139
43.65	2.94067
43.66	2.95054
43.67	2.9558
43.68	2.95745
43.69	2.99001
43.7	2.93574
43.71	2.91106
43.72	2.94166
43.73	2.95547
43.74	2.91797
43.75	2.88705
43.76	2.91929
43.77	2.9137
43.78	2.93508
43.79	2.92784
43.8	2.9581
43.81	2.91304
43.82	2.93475
43.83	2.9285
43.84	2.93409
43.85	2.93804
43.86	2.94133
43.87	2.92159
43.88	2.90942
43.89	2.92521
43.9	2.95054
43.91	2.93113
43.92	2.9683
43.93	2.94231
43.94	2.95153
43.95	2.9433
43.96	2.96435
43.97	2.94495
43.98	2.93804
43.99	2.941
44	2.93804
44.01	2.9456
44.02	2.93047
44.03	2.92587
44.04	2.92159
44.05	2.94231
44.06	2.95679
44.07	2.95054
44.08	2.95745
44.09	2.94758
44.1	2.9387
44.11	2.93409
44.12	2.95712
44.13	2.96797
44.14	2.94396
44.15	2.91106
44.16	2.94725
44.17	2.94264
44.18	2.95284
44.19	2.94001
44.2	2.93672
44.21	2.91731
44.22	2.93343
44.23	2.92883
44.24	2.94758
44.25	2.92949
44.26	2.93738
44.27	2.97916
44.28	2.95482
44.29	2.9387
44.3	2.96633
44.31	2.96008
44.32	2.93277
44.33	2.95054
44.34	2.94231
44.35	2.95021
44.36	2.97093
44.37	2.96205
44.38	2.96468
44.39	2.95087
44.4	2.93376
44.41	2.95054
44.42	2.96238
44.43	2.93541
44.44	2.94429
44.45	2.95449
44.46	2.96041
44.47	2.93047
44.48	2.94955
44.49	2.93738
44.5	2.95087
44.51	2.92554
44.52	2.95416
44.53	2.93277
44.54	2.93409
44.55	2.94264
44.56	2.93738
44.57	2.94034
44.58	2.93804
44.59	2.91929
44.6	2.90317
44.61	2.93245
44.62	2.92883
44.63	2.93738
44.64	2.96205
44.65	2.93113
44.66	2.93804
44.67	2.9433
44.68	2.93574
44.69	2.94166
44.7	2.93047
44.71	2.90284
44.72	2.91698
44.73	2.93837
44.74	2.9456
44.75	2.95679
44.76	2.9387
44.77	2.95876
44.78	2.94495
44.79	2.91205
44.8	2.94166
44.81	2.9433
44.82	2.91041
44.83	2.9331
44.84	2.9433
44.85	2.92258
44.86	2.93705
44.87	2.94889
44.88	2.96041
44.89	2.966
44.9	2.92751
44.91	2.94067
44.92	2.96732
44.93	2.96139
44.94	2.89231
44.95	2.93146
44.96	2.93409
44.97	2.95679
44.98	2.9206
44.99	2.91863
45	2.93574
45.01	2.92389
45.02	2.92817
45.03	2.94856
45.04	2.94824
45.05	2.94626
45.06	2.94955
45.07	2.93212
45.08	2.91534
45.09	2.96107
45.1	2.96732
45.11	2.91238
45.12	2.93738
45.13	2.93442
45.14	2.94231
45.15	2.94889
45.16	2.95383
45.17	2.92488
45.18	2.94297
45.19	2.92258
45.2	2.93245
45.21	2.89758
45.22	2.90416
45.23	2.9433
45.24	2.92652
45.25	2.95482
45.26	2.95778
45.27	2.92192
45.28	2.93541
45.29	2.94659
45.3	2.9512
45.31	2.9081
45.32	2.94363
45.33	2.96008
45.34	2.95218
45.35	2.95449
45.36	2.97061
45.37	2.9285
45.38	2.93574
45.39	2.96435
45.4	2.96567
45.41	2.92422
45.42	2.92883
45.43	2.95021
45.44	2.91962
45.45	2.92225
45.46	2.94199
45.47	2.9535
45.48	2.95613
45.49	2.96896
45.5	2.95975
45.51	2.96863
45.52	2.94396
45.53	2.94396
45.54	2.92784
45.55	2.95251
45.56	2.95482
45.57	2.94725
45.58	2.91238
45.59	2.94758
45.6	2.93245
45.61	2.9285
45.62	2.9456
45.63	2.94593
45.64	2.93442
45.65	2.94659
45.66	2.93606
45.67	2.92159
45.68	2.93508
45.69	2.91863
45.7	2.91534
45.71	2.92916
45.72	2.96041
45.73	2.9206
45.74	2.95185
45.75	2.94001
45.76	2.92521
45.77	2.91008
45.78	2.92356
45.79	2.96534
45.8	2.95416
45.81	2.916
45.82	2.95383
45.83	2.91666
45.84	2.9058
45.85	2.93277
45.86	2.96238
45.87	2.93574
45.88	2.92554
45.89	2.94396
45.9	2.91929
45.91	2.95514
45.92	2.92784
45.93	2.94297
45.94	2.94725
45.95	2.93212
45.96	2.93541
45.97	2.94593
45.98	2.92291
45.99	2.9331
46	2.93442
46.01	2.93113
46.02	2.94626
46.03	2.92652
46.04	2.91073
46.05	2.98574
46.06	2.96008
46.07	2.91633
46.08	2.93705
46.09	2.91534
46.1	2.93672
46.11	2.95547
46.12	2.94495
46.13	2.94166
46.14	2.92093
46.15	2.91435
46.16	2.94725
46.17	2.96337
46.18	2.94166
46.19	2.9331
46.2	2.9058
46.21	2.92488
46.22	2.94626
46.23	2.96205
46.24	2.95185
46.25	2.95185
46.26	2.95613
46.27	2.95284
46.28	2.9331
46.29	2.966
46.3	2.94297
46.31	2.92093
46.32	2.95942
46.33	2.97422
46.34	2.96172
46.35	2.94429
46.36	2.93014
46.37	2.90547
46.38	2.93771
46.39	2.92192
46.4	2.94396
46.41	2.89593
46.42	2.92258
46.43	2.9262
46.44	2.93738
46.45	2.94231
46.46	2.94593
46.47	2.93968
46.48	2.95021
46.49	2.94955
46.5	2.96238
46.51	2.94067
46.52	2.91534
46.53	2.94955
46.54	2.9512
46.55	2.93277
46.56	2.91797
46.57	2.93475
46.58	2.91534
46.59	2.90712
46.6	2.92225
46.61	2.9387
46.62	2.96896
46.63	2.95679
46.64	2.94495
46.65	2.92685
46.66	2.93508
46.67	2.91271
46.68	2.92817
46.69	2.93179
46.7	2.95185
46.71	2.93179
46.72	2.92981
46.73	2.95383
46.74	2.95185
46.75	2.94166
46.76	2.94659
46.77	2.98607
46.78	2.95317
46.79	2.95021
46.8	2.93277
46.81	2.91106
46.82	2.96107
46.83	2.94264
46.84	2.96501
46.85	2.92652
46.86	2.93376
46.87	2.9456
46.88	2.96962
46.89	2.96041
46.9	2.97192
46.91	2.9433
46.92	2.95482
46.93	2.96074
46.94	2.94034
46.95	2.9183
46.96	2.91238
46.97	2.9512
46.98	2.94955
46.99	2.92291
47	2.94626
47.01	2.95218
47.02	2.97126
47.03	2.93376
47.04	2.94495
47.05	2.98541
47.06	2.96074
47.07	2.94659
47.08	2.95547
47.09	2.92192
47.1	2.91468
47.11	2.94264
47.12	2.92324
47.13	2.93771
47.14	2.95778
47.15	2.96896
47.16	2.92751
47.17	2.94133
47.18	2.96238
47.19	2.92718
47.2	2.95843
47.21	2.91698
47.22	2.94363
47.23	2.92422
47.24	2.93639
47.25	2.92883
47.26	2.9206
47.27	2.9535
47.28	2.95514
47.29	2.92159
47.3	2.93508
47.31	2.94758
47.32	2.92652
47.33	2.92225
47.34	2.93574
47.35	2.96896
47.36	2.94495
47.37	2.96107
47.38	2.9535
47.39	2.91633
47.4	2.93113
47.41	2.9308
47.42	2.93738
47.43	2.97028
47.44	2.93508
47.45	2.9785
47.46	2.96435
47.47	2.94231
47.48	2.95087
47.49	2.94659
47.5	2.9512
47.51	2.9308
47.52	2.96304
47.53	2.93245
47.54	2.94166
47.55	2.95153
47.56	2.94199
47.57	2.92817
47.58	2.95054
47.59	2.93541
47.6	2.95646
47.61	2.95284
47.62	2.94462
47.63	2.91271
47.64	2.91337
47.65	2.93508
47.66	2.9206
47.67	2.91008
47.68	2.91172
47.69	2.92652
47.7	2.93771
47.71	2.92817
47.72	2.91896
47.73	2.97093
47.74	2.95942
47.75	2.95942
47.76	2.96732
47.77	2.93343
47.78	2.91435
47.79	2.93705
47.8	2.95153
47.81	2.91995
47.82	2.90284
47.83	2.9387
47.84	2.93179
47.85	2.95416
47.86	2.93903
47.87	2.95021
47.88	2.96732
47.89	2.93672
47.9	2.94758
47.91	2.92652
47.92	2.94363
47.93	2.94264
47.94	2.93541
47.95	2.941
47.96	2.95317
47.97	2.97093
47.98	2.9308
47.99	2.93146
48	2.9308
48.01	2.92587
48.02	2.93212
48.03	2.92554
48.04	2.91962
48.05	2.92291
48.06	2.93376
48.07	2.93837
48.08	2.94659
48.09	2.96139
48.1	2.94231
48.11	2.94363
48.12	2.93146
48.13	2.95942
48.14	2.89856
48.15	2.92817
48.16	2.91962
48.17	2.91666
48.18	2.96797
48.19	2.94034
48.2	2.94626
48.21	2.9433
48.22	2.96238
48.23	2.94955
48.24	2.97126
48.25	2.93475
48.26	2.93639
48.27	2.9308
48.28	2.94791
48.29	2.9456
48.3	2.94593
48.31	2.96172
48.32	2.94034
48.33	2.94297
48.34	2.93705
48.35	2.96008
48.36	2.94593
48.37	2.93113
48.38	2.93212
48.39	2.95514
48.4	2.91995
48.41	2.92652
48.42	2.93771
48.43	2.93409
48.44	2.9456
48.45	2.95514
48.46	2.93014
48.47	2.93146
48.48	2.9262
48.49	2.90646
48.5	2.94725
48.51	2.96107
48.52	2.92521
48.53	2.95251
48.54	2.97159
48.55	2.91666
48.56	2.94166
48.57	2.94725
48.58	2.96041
48.59	2.94133
48.6	2.93508
48.61	2.93968
48.62	2.9433
48.63	2.91534
48.64	2.93245
48.65	2.93771
48.66	2.94067
48.67	2.95547
48.68	2.95449
48.69	2.92225
48.7	2.93376
48.71	2.94199
48.72	2.9456
48.73	2.94528
48.74	2.9512
48.75	2.90876
48.76	2.93343
48.77	2.93343
48.78	2.91271
48.79	2.9433
48.8	2.92225
48.81	2.91731
48.82	2.93343
48.83	2.93837
48.84	2.95251
48.85	2.91271
48.86	2.95087
48.87	2.93343
48.88	2.941
48.89	2.95613
48.9	2.91435
48.91	2.93245
48.92	2.93606
48.93	2.92422
48.94	2.94593
48.95	2.96271
48.96	2.92554
48.97	2.9512
48.98	2.95218
48.99	2.96107
49	2.94495
49.01	2.95383
49.02	2.94824
49.03	2.90416
49.04	2.9285
49.05	2.94889
49.06	2.93771
49.07	2.9285
49.08	2.91435
49.09	2.94824
49.1	2.98113
49.11	2.93804
49.12	2.92159
49.13	2.91962
49.14	2.92093
49.15	2.91106
49.16	2.92389
49.17	2.95087
49.18	2.92159
49.19	2.95153
49.2	2.94264
49.21	2.96534
49.22	2.95218
49.23	2.91567
49.24	2.9285
49.25	2.92455
49.26	2.94495
49.27	2.94462
49.28	2.94955
49.29	2.92455
49.3	2.94429
49.31	2.9512
49.32	2.92291
49.33	2.92784
49.34	2.9058
49.35	2.89231
49.36	2.9206
49.37	2.94626
49.38	2.96172
49.39	2.93409
49.4	2.93837
49.41	2.95843
49.42	2.93606
49.43	2.94791
49.44	2.96337
49.45	2.94396
49.46	2.94692
49.47	2.92192
49.48	2.94199
49.49	2.94297
49.5	2.93409
49.51	2.92949
49.52	2.92291
49.53	2.92291
49.54	2.95383
49.55	2.93376
49.56	2.9137
49.57	2.94034
49.58	2.9285
49.59	2.90613
49.6	2.91962
49.61	2.92883
49.62	2.95942
49.63	2.94199
49.64	2.941
49.65	2.9456
49.66	2.91534
49.67	2.91666
49.68	2.91797
49.69	2.93639
49.7	2.93475
49.71	2.96172
49.72	2.9183
49.73	2.93705
49.74	2.91402
49.75	2.9512
49.76	2.9331
49.77	2.92652
49.78	2.93968
49.79	2.93146
49.8	2.95218
49.81	2.97653
49.82	2.94363
49.83	2.93245
49.84	2.94363
49.85	2.93179
49.86	2.94429
49.87	2.93837
49.88	2.93837
49.89	2.96995
49.9	2.91271
49.91	2.96008
49.92	2.94791
49.93	2.91468
49.94	2.93277
49.95	2.9512
49.96	2.93771
49.97	2.9308
49.98	2.93343
49.99	2.95613
50	2.92751
