"BIO-KINE ASCII FILE"
"_COMMENT"	"MOS-500 Spectrometer"
"_COMMENT"	"Kinetics measurement"
"_COMMENT"	"Y Unit : Volt,  X Unit : s"
"_COMMENT"	"Excitation wavelength : 380 nm"
"_COMMENT"	"Fentes bandwidth =  1 nm"
"_COMMENT"	"HV= 1000V"
"_COMMENT"	"Timebase  1 =  .01 s   3001 pts"
"_SFM"	"SFM-400 /S  Advanced mode"
"_SFM"	"Ratio : S1: 2.5, S2: 0, S3: 0, S4: 1"
"_SFM"	"Content : S1: , S2: , S3: , S4:"
"_SFM"	"Concentration : S1: , S2: , S3: , S4:"
"_SFM"	"Total volume : 209 µl  Flow : 3.5 mL/s"
"_SFM"	"Acquisition start :  10 ms before stop"
"_SFM"	"cuve=FC-15, s1=10 ml , s2=10 ml , s3=10 ml , s4=1.9 ml"
"_UNITX"	"s"
"_UNITY"	"Volt"
"_DELTAX"	0
"_DATA"
1e-300	2.61994
0.01	2.58243
0.02	2.63046
0.03	2.66434
0.04	2.71895
0.05	2.73573
0.06	2.73343
0.07	2.72652
0.08	2.75316
0.09	2.77323
0.1	2.77981
0.11	2.79231
0.12	2.7956
0.13	2.80053
0.14	2.78244
0.15	2.79034
0.16	2.83738
0.17	2.84165
0.18	2.86633
0.19	2.86896
0.2	2.82915
0.21	2.81501
0.22	2.77619
0.23	2.80415
0.24	2.85843
0.25	2.82323
0.26	2.83211
0.27	2.83376
0.28	2.8285
0.29	2.83244
0.3	2.81336
0.31	2.82455
0.32	2.80942
0.33	2.8285
0.34	2.84494
0.35	2.85679
0.36	2.83705
0.37	2.83968
0.38	2.83442
0.39	2.85909
0.4	2.83869
0.41	2.81896
0.42	2.82488
0.43	2.81896
0.44	2.83836
0.45	2.8285
0.46	2.84692
0.47	2.82521
0.48	2.83409
0.49	2.84659
0.5	2.82817
0.51	2.82027
0.52	2.85284
0.53	2.85119
0.54	2.82159
0.55	2.84922
0.56	2.85382
0.57	2.85843
0.58	2.83014
0.59	2.81665
0.6	2.85021
0.61	2.86929
0.62	2.83442
0.63	2.81007
0.64	2.84725
0.65	2.83475
0.66	2.85054
0.67	2.84725
0.68	2.83014
0.69	2.81501
0.7	2.79856
0.71	2.80678
0.72	2.80317
0.73	2.82126
0.74	2.83178
0.75	2.8308
0.76	2.83935
0.77	2.81468
0.78	2.83376
0.79	2.83277
0.8	2.81073
0.81	2.85909
0.82	2.83475
0.83	2.84725
0.84	2.83606
0.85	2.78672
0.86	2.81698
0.87	2.8535
0.88	2.84856
0.89	2.85547
0.9	2.85744
0.91	2.84823
0.92	2.81994
0.93	2.81567
0.94	2.84461
0.95	2.85744
0.96	2.83705
0.97	2.82718
0.98	2.81599
0.99	2.85415
1	2.85317
1.01	2.83047
1.02	2.83014
1.03	2.83113
1.04	2.83639
1.05	2.84001
1.06	2.84034
1.07	2.82257
1.08	2.79922
1.09	2.81468
1.1	2.82817
1.11	2.86501
1.12	2.86501
1.13	2.84034
1.14	2.83113
1.15	2.84132
1.16	2.83968
1.17	2.85021
1.18	2.84264
1.19	2.81435
1.2	2.81402
1.21	2.84231
1.22	2.83442
1.23	2.82553
1.24	2.83475
1.25	2.84297
1.26	2.84494
1.27	2.81106
1.28	2.84593
1.29	2.84231
1.3	2.83146
1.31	2.84067
1.32	2.8331
1.33	2.82619
1.34	2.81994
1.35	2.83935
1.36	2.85284
1.37	2.8229
1.38	2.83639
1.39	2.82323
1.4	2.81336
1.41	2.83836
1.42	2.85317
1.43	2.84396
1.44	2.83277
1.45	2.83672
1.46	2.82356
1.47	2.8308
1.48	2.79066
1.49	2.82948
1.5	2.84165
1.51	2.83475
1.52	2.81698
1.53	2.79494
1.54	2.82521
1.55	2.84264
1.56	2.84527
1.57	2.83475
1.58	2.77455
1.59	2.84067
1.6	2.81797
1.61	2.79955
1.62	2.81797
1.63	2.79823
1.64	2.81599
1.65	2.82093
1.66	2.8183
1.67	2.83869
1.68	2.78935
1.69	2.79955
1.7	2.80448
1.71	2.80547
1.72	2.8229
1.73	2.81303
1.74	2.81073
1.75	2.82817
1.76	2.79955
1.77	2.8081
1.78	2.83869
1.79	2.81961
1.8	2.81139
1.81	2.80086
1.82	2.76895
1.83	2.80942
1.84	2.86336
1.85	2.85054
1.86	2.81797
1.87	2.81764
1.88	2.82586
1.89	2.81632
1.9	2.83178
1.91	2.81073
1.92	2.84757
1.93	2.82224
1.94	2.80185
1.95	2.80514
1.96	2.78968
1.97	2.8081
1.98	2.79659
1.99	2.81698
2	2.82422
2.01	2.82817
2.02	2.78836
2.03	2.78507
2.04	2.81435
2.05	2.8183
2.06	2.78277
2.07	2.8058
2.08	2.8002
2.09	2.79034
2.1	2.82159
2.11	2.80843
2.12	2.80415
2.13	2.81369
2.14	2.82159
2.15	2.81369
2.16	2.82126
2.17	2.78047
2.18	2.81731
2.19	2.8308
2.2	2.84396
2.21	2.81961
2.22	2.8229
2.23	2.81238
2.24	2.81205
2.25	2.80974
2.26	2.84889
2.27	2.85054
2.28	2.81994
2.29	2.81271
2.3	2.79297
2.31	2.80382
2.32	2.78902
2.33	2.79198
2.34	2.79264
2.35	2.80843
2.36	2.7752
2.37	2.83738
2.38	2.80514
2.39	2.80119
2.4	2.83211
2.41	2.80185
2.42	2.79461
2.43	2.79955
2.44	2.83277
2.45	2.81369
2.46	2.81238
2.47	2.82224
2.48	2.79034
2.49	2.81139
2.5	2.8229
2.51	2.83277
2.52	2.83606
2.53	2.79659
2.54	2.79363
2.55	2.79659
2.56	2.8058
2.57	2.79988
2.58	2.84659
2.59	2.80185
2.6	2.81007
2.61	2.81073
2.62	2.83475
2.63	2.84922
2.64	2.85481
2.65	2.84692
2.66	2.8479
2.67	2.85711
2.68	2.84494
2.69	2.81336
2.7	2.7933
2.71	2.81501
2.72	2.8229
2.73	2.77816
2.74	2.79494
2.75	2.81665
2.76	2.80284
2.77	2.80481
2.78	2.78935
2.79	2.80317
2.8	2.81961
2.81	2.79066
2.82	2.80744
2.83	2.79132
2.84	2.79856
2.85	2.79889
2.86	2.81731
2.87	2.80152
2.88	2.78738
2.89	2.83771
2.9	2.80777
2.91	2.8104
2.92	2.81863
2.93	2.78573
2.94	2.81731
2.95	2.81007
2.96	2.80185
2.97	2.79757
2.98	2.82257
2.99	2.81501
3	2.80284
3.01	2.79757
3.02	2.83211
3.03	2.80547
3.04	2.79757
3.05	2.79494
3.06	2.7729
3.07	2.83475
3.08	2.8081
3.09	2.78507
3.1	2.80876
3.11	2.80909
3.12	2.81402
3.13	2.77619
3.14	2.76566
3.15	2.78639
3.16	2.76468
3.17	2.80317
3.18	2.81764
3.19	2.81567
3.2	2.80645
3.21	2.7877
3.22	2.78968
3.23	2.81139
3.24	2.75843
3.25	2.80382
3.26	2.80284
3.27	2.79001
3.28	2.78244
3.29	2.80185
3.3	2.77948
3.31	2.7877
3.32	2.78803
3.33	2.79099
3.34	2.81007
3.35	2.80645
3.36	2.83836
3.37	2.79165
3.38	2.76501
3.39	2.79165
3.4	2.81961
3.41	2.79034
3.42	2.78343
3.43	2.80119
3.44	2.79165
3.45	2.79988
3.46	2.82652
3.47	2.80317
3.48	2.81369
3.49	2.76961
3.5	2.78803
3.51	2.76599
3.52	2.79988
3.53	2.80514
3.54	2.76961
3.55	2.78178
3.56	2.80053
3.57	2.80317
3.58	2.78441
3.59	2.80711
3.6	2.80448
3.61	2.77849
3.62	2.80251
3.63	2.80711
3.64	2.78409
3.65	2.8058
3.66	2.79198
3.67	2.77553
3.68	2.79099
3.69	2.79461
3.7	2.80777
3.71	2.79988
3.72	2.79428
3.73	2.79099
3.74	2.79823
3.75	2.80974
3.76	2.78474
3.77	2.78869
3.78	2.77191
3.79	2.79757
3.8	2.7877
3.81	2.81271
3.82	2.81402
3.83	2.78705
3.84	2.79034
3.85	2.7854
3.86	2.77487
3.87	2.7956
3.88	2.7956
3.89	2.79593
3.9	2.77619
3.91	2.78178
3.92	2.77586
3.93	2.77191
3.94	2.79494
3.95	2.77816
3.96	2.76632
3.97	2.77126
3.98	2.77784
3.99	2.74099
4	2.79034
4.01	2.80678
4.02	2.80678
4.03	2.77718
4.04	2.82093
4.05	2.77422
4.06	2.79922
4.07	2.78606
4.08	2.78935
4.09	2.79099
4.1	2.79001
4.11	2.80317
4.12	2.78803
4.13	2.80086
4.14	2.81534
4.15	2.80415
4.16	2.77126
4.17	2.81534
4.18	2.80086
4.19	2.80909
4.2	2.80317
4.21	2.80514
4.22	2.79856
4.23	2.77718
4.24	2.80415
4.25	2.82619
4.26	2.79297
4.27	2.77323
4.28	2.78047
4.29	2.77981
4.3	2.78474
4.31	2.81632
4.32	2.78639
4.33	2.80744
4.34	2.79626
4.35	2.79593
4.36	2.78606
4.37	2.81007
4.38	2.80349
4.39	2.80777
4.4	2.78639
4.41	2.79428
4.42	2.77422
4.43	2.75086
4.44	2.77323
4.45	2.77257
4.46	2.78441
4.47	2.78738
4.48	2.77455
4.49	2.79659
4.5	2.79955
4.51	2.77816
4.52	2.74757
4.53	2.79692
4.54	2.74626
4.55	2.79494
4.56	2.7808
4.57	2.78178
4.58	2.78113
4.59	2.77126
4.6	2.77685
4.61	2.78672
4.62	2.7877
4.63	2.76994
4.64	2.7979
4.65	2.76698
4.66	2.78441
4.67	2.82817
4.68	2.78869
4.69	2.77159
4.7	2.79001
4.71	2.79494
4.72	2.78211
4.73	2.79659
4.74	2.79757
4.75	2.77586
4.76	2.80744
4.77	2.80415
4.78	2.77191
4.79	2.78113
4.8	2.80974
4.81	2.78343
4.82	2.79001
4.83	2.77784
4.84	2.78409
4.85	2.78145
4.86	2.77093
4.87	2.77915
4.88	2.76698
4.89	2.8058
4.9	2.74198
4.91	2.75941
4.92	2.79461
4.93	2.7752
4.94	2.76073
4.95	2.79099
4.96	2.7729
4.97	2.77027
4.98	2.77389
4.99	2.74264
5	2.78343
5.01	2.7854
5.02	2.77553
5.03	2.73968
5.04	2.75777
5.05	2.76994
5.06	2.74889
5.07	2.74099
5.08	2.80152
5.09	2.75941
5.1	2.81073
5.11	2.79428
5.12	2.75382
5.13	2.76961
5.14	2.77882
5.15	2.7877
5.16	2.78047
5.17	2.7456
5.18	2.76139
5.19	2.77356
5.2	2.77191
5.21	2.7933
5.22	2.76073
5.23	2.80744
5.24	2.78507
5.25	2.78803
5.26	2.76402
5.27	2.75053
5.28	2.76764
5.29	2.78474
5.3	2.74856
5.31	2.77586
5.32	2.78738
5.33	2.77191
5.34	2.78145
5.35	2.78738
5.36	2.7808
5.37	2.74165
5.38	2.74231
5.39	2.79198
5.4	2.78705
5.41	2.78343
5.42	2.7956
5.43	2.77816
5.44	2.76303
5.45	2.75843
5.46	2.7933
5.47	2.77915
5.48	2.8104
5.49	2.7627
5.5	2.7854
5.51	2.7933
5.52	2.82948
5.53	2.77652
5.54	2.78277
5.55	2.73836
5.56	2.75448
5.57	2.76797
5.58	2.74132
5.59	2.74428
5.6	2.74724
5.61	2.74428
5.62	2.76468
5.63	2.79922
5.64	2.79922
5.65	2.72816
5.66	2.72487
5.67	2.77027
5.68	2.75711
5.69	2.76961
5.7	2.79231
5.71	2.7956
5.72	2.78343
5.73	2.79001
5.74	2.78211
5.75	2.76369
5.76	2.75974
5.77	2.73474
5.78	2.75514
5.79	2.78935
5.8	2.76566
5.81	2.76566
5.82	2.75974
5.83	2.75711
5.84	2.77159
5.85	2.7854
5.86	2.76007
5.87	2.7808
5.88	2.7627
5.89	2.74231
5.9	2.74922
5.91	2.77685
5.92	2.77093
5.93	2.7933
5.94	2.77718
5.95	2.76336
5.96	2.75711
5.97	2.76534
5.98	2.77323
5.99	2.73112
6	2.76172
6.01	2.7877
6.02	2.73737
6.03	2.74001
6.04	2.7581
6.05	2.76172
6.06	2.76139
6.07	2.76698
6.08	2.79297
6.09	2.76994
6.1	2.7558
6.11	2.77027
6.12	2.76435
6.13	2.78014
6.14	2.76928
6.15	2.75185
6.16	2.77751
6.17	2.75283
6.18	2.77191
6.19	2.77685
6.2	2.78639
6.21	2.78738
6.22	2.7752
6.23	2.78507
6.24	2.7502
6.25	2.73376
6.26	2.76468
6.27	2.78869
6.28	2.77159
6.29	2.75645
6.3	2.78507
6.31	2.7683
6.32	2.79494
6.33	2.77948
6.34	2.78047
6.35	2.77323
6.36	2.77619
6.37	2.75086
6.38	2.72125
6.39	2.74231
6.4	2.77948
6.41	2.7502
6.42	2.78869
6.43	2.7877
6.44	2.76336
6.45	2.7604
6.46	2.76336
6.47	2.75974
6.48	2.76534
6.49	2.76237
6.5	2.76139
6.51	2.77093
6.52	2.78178
6.53	2.76731
6.54	2.79034
6.55	2.76599
6.56	2.78145
6.57	2.7604
6.58	2.7854
6.59	2.78145
6.6	2.76402
6.61	2.8002
6.62	2.76764
6.63	2.79165
6.64	2.77816
6.65	2.78145
6.66	2.77915
6.67	2.7377
6.68	2.72718
6.69	2.72882
6.7	2.73869
6.71	2.76237
6.72	2.75777
6.73	2.7854
6.74	2.78803
6.75	2.75514
6.76	2.74461
6.77	2.76928
6.78	2.76961
6.79	2.76764
6.8	2.77126
6.81	2.76336
6.82	2.78047
6.83	2.78014
6.84	2.75908
6.85	2.75185
6.86	2.76534
6.87	2.78145
6.88	2.77126
6.89	2.79395
6.9	2.78343
6.91	2.75843
6.92	2.7706
6.93	2.7683
6.94	2.74823
6.95	2.74724
6.96	2.75843
6.97	2.78606
6.98	2.74922
6.99	2.75876
7	2.72816
7.01	2.77487
7.02	2.78343
7.03	2.75645
7.04	2.74658
7.05	2.76534
7.06	2.75086
7.07	2.74626
7.08	2.77849
7.09	2.76632
7.1	2.73112
7.11	2.75843
7.12	2.77356
7.13	2.76007
7.14	2.77849
7.15	2.7627
7.16	2.7558
7.17	2.76566
7.18	2.75415
7.19	2.74395
7.2	2.76599
7.21	2.74955
7.22	2.74889
7.23	2.76862
7.24	2.73441
7.25	2.76566
7.26	2.77487
7.27	2.74987
7.28	2.76665
7.29	2.76007
7.3	2.76237
7.31	2.75086
7.32	2.75349
7.33	2.77981
7.34	2.77586
7.35	2.77981
7.36	2.7627
7.37	2.76106
7.38	2.76599
7.39	2.75086
7.4	2.74165
7.41	2.7479
7.42	2.77685
7.43	2.76106
7.44	2.74658
7.45	2.73244
7.46	2.75382
7.47	2.7479
7.48	2.76501
7.49	2.74856
7.5	2.74395
7.51	2.77126
7.52	2.78113
7.53	2.77882
7.54	2.76073
7.55	2.7456
7.56	2.74329
7.57	2.76665
7.58	2.75645
7.59	2.74922
7.6	2.77027
7.61	2.74494
7.62	2.76007
7.63	2.75053
7.64	2.76599
7.65	2.76534
7.66	2.74527
7.67	2.71007
7.68	2.76895
7.69	2.74955
7.7	2.75974
7.71	2.78705
7.72	2.74691
7.73	2.75908
7.74	2.7502
7.75	2.74856
7.76	2.78507
7.77	2.76895
7.78	2.74297
7.79	2.75876
7.8	2.76895
7.81	2.75185
7.82	2.76599
7.83	2.76435
7.84	2.76632
7.85	2.72586
7.86	2.75349
7.87	2.75777
7.88	2.75547
7.89	2.7456
7.9	2.77981
7.91	2.77093
7.92	2.75941
7.93	2.7479
7.94	2.77915
7.95	2.72224
7.96	2.74593
7.97	2.7581
7.98	2.78606
7.99	2.75612
8	2.77093
8.01	2.7331
8.02	2.73672
8.03	2.71862
8.04	2.72948
8.05	2.76237
8.06	2.76172
8.07	2.7581
8.08	2.74889
8.09	2.72849
8.1	2.76139
8.11	2.75744
8.12	2.76106
8.13	2.7581
8.14	2.76205
8.15	2.73376
8.16	2.76073
8.17	2.75119
8.18	2.73376
8.19	2.76468
8.2	2.74626
8.21	2.75185
8.22	2.74362
8.23	2.72191
8.24	2.74066
8.25	2.76205
8.26	2.75251
8.27	2.74461
8.28	2.76205
8.29	2.76994
8.3	2.73573
8.31	2.73178
8.32	2.72948
8.33	2.7854
8.34	2.78047
8.35	2.74066
8.36	2.7502
8.37	2.72027
8.38	2.7581
8.39	2.75941
8.4	2.77455
8.41	2.76665
8.42	2.75415
8.43	2.74264
8.44	2.76007
8.45	2.72191
8.46	2.76303
8.47	2.76237
8.48	2.73836
8.49	2.74527
8.5	2.75218
8.51	2.74658
8.52	2.7581
8.53	2.74033
8.54	2.76007
8.55	2.70481
8.56	2.73968
8.57	2.75415
8.58	2.77323
8.59	2.75744
8.6	2.73441
8.61	2.74461
8.62	2.7456
8.63	2.75514
8.64	2.7127
8.65	2.72257
8.66	2.74099
8.67	2.74494
8.68	2.74527
8.69	2.78178
8.7	2.74626
8.71	2.73014
8.72	2.72553
8.73	2.74033
8.74	2.75744
8.75	2.72915
8.76	2.74099
8.77	2.75744
8.78	2.75053
8.79	2.74395
8.8	2.72257
8.81	2.72816
8.82	2.74658
8.83	2.7229
8.84	2.74329
8.85	2.77751
8.86	2.7581
8.87	2.71073
8.88	2.74099
8.89	2.70185
8.9	2.71632
8.91	2.74987
8.92	2.73902
8.93	2.76665
8.94	2.74001
8.95	2.74329
8.96	2.75283
8.97	2.76862
8.98	2.7604
8.99	2.76501
9	2.76961
9.01	2.73211
9.02	2.75645
9.03	2.74165
9.04	2.76303
9.05	2.71928
9.06	2.71862
9.07	2.7581
9.08	2.74626
9.09	2.72323
9.1	2.75119
9.11	2.73902
9.12	2.72685
9.13	2.74001
9.14	2.76895
9.15	2.75283
9.16	2.73145
9.17	2.74955
9.18	2.71204
9.19	2.72816
9.2	2.75678
9.21	2.76501
9.22	2.76139
9.23	2.76172
9.24	2.78902
9.25	2.74297
9.26	2.75876
9.27	2.75086
9.28	2.73474
9.29	2.74724
9.3	2.73606
9.31	2.7331
9.32	2.74724
9.33	2.7127
9.34	2.73836
9.35	2.73047
9.36	2.75119
9.37	2.7627
9.38	2.73869
9.39	2.72816
9.4	2.73606
9.41	2.74527
9.42	2.73343
9.43	2.74922
9.44	2.75415
9.45	2.71533
9.46	2.73737
9.47	2.77257
9.48	2.73836
9.49	2.72553
9.5	2.75843
9.51	2.75119
9.52	2.74329
9.53	2.75547
9.54	2.74757
9.55	2.74362
9.56	2.72191
9.57	2.74001
9.58	2.74264
9.59	2.72718
9.6	2.71402
9.61	2.77126
9.62	2.7729
9.63	2.73211
9.64	2.75218
9.65	2.75908
9.66	2.75415
9.67	2.7206
9.68	2.7377
9.69	2.7581
9.7	2.77882
9.71	2.72981
9.72	2.73704
9.73	2.73737
9.74	2.71797
9.75	2.7377
9.76	2.73935
9.77	2.7331
9.78	2.70316
9.79	2.73376
9.8	2.7479
9.81	2.72619
9.82	2.70185
9.83	2.75086
9.84	2.69132
9.85	2.73836
9.86	2.72422
9.87	2.72389
9.88	2.70941
9.89	2.75251
9.9	2.7558
9.91	2.71632
9.92	2.75547
9.93	2.73639
9.94	2.73343
9.95	2.71599
9.96	2.71895
9.97	2.73474
9.98	2.75777
9.99	2.73639
10	2.76534
10.01	2.74757
10.02	2.73112
10.03	2.70974
10.04	2.7229
10.05	2.73376
10.06	2.73376
10.07	2.71435
10.08	2.72586
10.09	2.69494
10.1	2.74724
10.11	2.7354
10.12	2.74428
10.13	2.70185
10.14	2.72586
10.15	2.74395
10.16	2.75612
10.17	2.74362
10.18	2.74165
10.19	2.74165
10.2	2.74428
10.21	2.74132
10.22	2.72257
10.23	2.75086
10.24	2.75514
10.25	2.72389
10.26	2.72027
10.27	2.71435
10.28	2.72125
10.29	2.72849
10.3	2.73704
10.31	2.75053
10.32	2.73277
10.33	2.72553
10.34	2.72257
10.35	2.74362
10.36	2.74691
10.37	2.77389
10.38	2.74165
10.39	2.76435
10.4	2.76797
10.41	2.74231
10.42	2.75415
10.43	2.76501
10.44	2.72553
10.45	2.71698
10.46	2.73211
10.47	2.71303
10.48	2.71402
10.49	2.7252
10.5	2.72553
10.51	2.73211
10.52	2.70941
10.53	2.74297
10.54	2.73474
10.55	2.71599
10.56	2.74823
10.57	2.7377
10.58	2.71566
10.59	2.73145
10.6	2.74033
10.61	2.72652
10.62	2.72882
10.63	2.72783
10.64	2.72586
10.65	2.74494
10.66	2.74428
10.67	2.74099
10.68	2.75185
10.69	2.74823
10.7	2.73244
10.71	2.73836
10.72	2.74329
10.73	2.69527
10.74	2.75283
10.75	2.72027
10.76	2.68704
10.77	2.74264
10.78	2.76073
10.79	2.70086
10.8	2.74461
10.81	2.71204
10.82	2.72948
10.83	2.76205
10.84	2.72619
10.85	2.76172
10.86	2.71139
10.87	2.73803
10.88	2.71665
10.89	2.74231
10.9	2.73836
10.91	2.71336
10.92	2.71731
10.93	2.75283
10.94	2.72816
10.95	2.72849
10.96	2.7229
10.97	2.71797
10.98	2.7104
10.99	2.70777
11	2.71632
11.01	2.7104
11.02	2.73836
11.03	2.73737
11.04	2.71731
11.05	2.73145
11.06	2.74823
11.07	2.72356
11.08	2.7127
11.09	2.72718
11.1	2.72882
11.11	2.72816
11.12	2.72093
11.13	2.70612
11.14	2.74626
11.15	2.75382
11.16	2.72652
11.17	2.73935
11.18	2.7502
11.19	2.76566
11.2	2.72323
11.21	2.72948
11.22	2.7229
11.23	2.75283
11.24	2.73047
11.25	2.74395
11.26	2.72125
11.27	2.71797
11.28	2.74264
11.29	2.73737
11.3	2.74329
11.31	2.74165
11.32	2.73836
11.33	2.72816
11.34	2.71928
11.35	2.7104
11.36	2.72191
11.37	2.72718
11.38	2.72981
11.39	2.71698
11.4	2.70481
11.41	2.71566
11.42	2.73704
11.43	2.75777
11.44	2.71139
11.45	2.73343
11.46	2.73376
11.47	2.73112
11.48	2.72586
11.49	2.78244
11.5	2.75777
11.51	2.71599
11.52	2.71139
11.53	2.72718
11.54	2.74856
11.55	2.72389
11.56	2.72981
11.57	2.72356
11.58	2.73408
11.59	2.72257
11.6	2.70711
11.61	2.73737
11.62	2.73343
11.63	2.69428
11.64	2.73079
11.65	2.71533
11.66	2.71599
11.67	2.73507
11.68	2.72882
11.69	2.74165
11.7	2.74264
11.71	2.71862
11.72	2.71928
11.73	2.71139
11.74	2.73343
11.75	2.73244
11.76	2.72718
11.77	2.71435
11.78	2.69461
11.79	2.71007
11.8	2.75382
11.81	2.7252
11.82	2.72553
11.83	2.72454
11.84	2.73211
11.85	2.715
11.86	2.70283
11.87	2.74823
11.88	2.71139
11.89	2.70744
11.9	2.73244
11.91	2.71764
11.92	2.74461
11.93	2.74329
11.94	2.70941
11.95	2.75514
11.96	2.7002
11.97	2.72586
11.98	2.77159
11.99	2.7479
12	2.72981
12.01	2.70908
12.02	2.73935
12.03	2.73968
12.04	2.70612
12.05	2.68013
12.06	2.65579
12.07	2.69987
12.08	2.72718
12.09	2.73178
12.1	2.73573
12.11	2.72849
12.12	2.72718
12.13	2.72783
12.14	2.72553
12.15	2.7354
12.16	2.71237
12.17	2.71566
12.18	2.71139
12.19	2.71303
12.2	2.73803
12.21	2.73408
12.22	2.7206
12.23	2.72849
12.24	2.74889
12.25	2.74001
12.26	2.73079
12.27	2.74395
12.28	2.74198
12.29	2.72586
12.3	2.71566
12.31	2.72224
12.32	2.74724
12.33	2.76797
12.34	2.75843
12.35	2.72257
12.36	2.73474
12.37	2.72849
12.38	2.72323
12.39	2.70843
12.4	2.70185
12.41	2.72191
12.42	2.71599
12.43	2.73968
12.44	2.71797
12.45	2.71402
12.46	2.71698
12.47	2.75349
12.48	2.73836
12.49	2.73408
12.5	2.72454
12.51	2.70612
12.52	2.74691
12.53	2.73573
12.54	2.73079
12.55	2.72816
12.56	2.72685
12.57	2.73507
12.58	2.74757
12.59	2.715
12.6	2.71303
12.61	2.76172
12.62	2.74494
12.63	2.72487
12.64	2.7104
12.65	2.75382
12.66	2.72323
12.67	2.69856
12.68	2.73047
12.69	2.71862
12.7	2.72553
12.71	2.74001
12.72	2.69264
12.73	2.71829
12.74	2.72389
12.75	2.73112
12.76	2.72816
12.77	2.71961
12.78	2.70514
12.79	2.73573
12.8	2.73704
12.81	2.74494
12.82	2.73014
12.83	2.72356
12.84	2.72191
12.85	2.73178
12.86	2.74099
12.87	2.71402
12.88	2.7581
12.89	2.71468
12.9	2.72685
12.91	2.72389
12.92	2.73047
12.93	2.73145
12.94	2.71106
12.95	2.72619
12.96	2.71468
12.97	2.71599
12.98	2.74264
12.99	2.73244
13	2.72356
13.01	2.76534
13.02	2.73968
13.03	2.72718
13.04	2.73408
13.05	2.71928
13.06	2.68441
13.07	2.74527
13.08	2.7377
13.09	2.72257
13.1	2.74297
13.11	2.74658
13.12	2.75908
13.13	2.73836
13.14	2.71468
13.15	2.69724
13.16	2.73178
13.17	2.72158
13.18	2.7354
13.19	2.74658
13.2	2.74593
13.21	2.72849
13.22	2.73047
13.23	2.72553
13.24	2.71665
13.25	2.71599
13.26	2.72422
13.27	2.73343
13.28	2.715
13.29	2.71961
13.3	2.72158
13.31	2.7331
13.32	2.70941
13.33	2.72783
13.34	2.71435
13.35	2.74165
13.36	2.7275
13.37	2.69231
13.38	2.69987
13.39	2.7377
13.4	2.72027
13.41	2.715
13.42	2.72158
13.43	2.72948
13.44	2.7354
13.45	2.72093
13.46	2.69592
13.47	2.7354
13.48	2.73704
13.49	2.70843
13.5	2.72027
13.51	2.73014
13.52	2.7456
13.53	2.72915
13.54	2.70546
13.55	2.71764
13.56	2.72027
13.57	2.73639
13.58	2.7683
13.59	2.72718
13.6	2.71106
13.61	2.71797
13.62	2.72454
13.63	2.72685
13.64	2.72816
13.65	2.70777
13.66	2.70119
13.67	2.72849
13.68	2.70053
13.69	2.68935
13.7	2.66961
13.71	2.7275
13.72	2.69757
13.73	2.71829
13.74	2.71731
13.75	2.71303
13.76	2.7456
13.77	2.68079
13.78	2.68408
13.79	2.72652
13.8	2.73507
13.81	2.69757
13.82	2.69099
13.83	2.69099
13.84	2.6854
13.85	2.7104
13.86	2.72125
13.87	2.72619
13.88	2.73639
13.89	2.69395
13.9	2.69823
13.91	2.70546
13.92	2.69362
13.93	2.69921
13.94	2.71073
13.95	2.74889
13.96	2.72915
13.97	2.7104
13.98	2.70316
13.99	2.70415
14	2.75086
14.01	2.73639
14.02	2.69099
14.03	2.75876
14.04	2.76402
14.05	2.71566
14.06	2.71566
14.07	2.75514
14.08	2.74066
14.09	2.72586
14.1	2.75448
14.11	2.70415
14.12	2.69658
14.13	2.72257
14.14	2.73408
14.15	2.7252
14.16	2.71106
14.17	2.72487
14.18	2.71007
14.19	2.69494
14.2	2.66829
14.21	2.69527
14.22	2.7127
14.23	2.71073
14.24	2.71007
14.25	2.72882
14.26	2.71468
14.27	2.70546
14.28	2.69757
14.29	2.70086
14.3	2.73507
14.31	2.71171
14.32	2.69461
14.33	2.70086
14.34	2.75448
14.35	2.69527
14.36	2.68704
14.37	2.70645
14.38	2.70086
14.39	2.74987
14.4	2.73277
14.41	2.7104
14.42	2.71764
14.43	2.71402
14.44	2.69592
14.45	2.67619
14.46	2.6729
14.47	2.71797
14.48	2.74658
14.49	2.7354
14.5	2.70875
14.51	2.68836
14.52	2.70218
14.53	2.71764
14.54	2.71895
14.55	2.72553
14.56	2.73079
14.57	2.72586
14.58	2.6854
14.59	2.71994
14.6	2.72619
14.61	2.70678
14.62	2.73639
14.63	2.72356
14.64	2.7331
14.65	2.71862
14.66	2.74264
14.67	2.74626
14.68	2.73145
14.69	2.71106
14.7	2.72027
14.71	2.71369
14.72	2.72027
14.73	2.70843
14.74	2.71566
14.75	2.70843
14.76	2.71402
14.77	2.71731
14.78	2.72191
14.79	2.72356
14.8	2.71171
14.81	2.73869
14.82	2.69296
14.83	2.7104
14.84	2.72093
14.85	2.72191
14.86	2.73244
14.87	2.7331
14.88	2.73408
14.89	2.71468
14.9	2.7104
14.91	2.72125
14.92	2.75152
14.93	2.72257
14.94	2.70053
14.95	2.72915
14.96	2.73343
14.97	2.71336
14.98	2.70349
14.99	2.71764
15	2.72652
15.01	2.71764
15.02	2.73343
15.03	2.70382
15.04	2.68606
15.05	2.70185
15.06	2.71468
15.07	2.72389
15.08	2.7331
15.09	2.70645
15.1	2.69592
15.11	2.71237
15.12	2.72125
15.13	2.72323
15.14	2.73441
15.15	2.72652
15.16	2.71171
15.17	2.71171
15.18	2.69592
15.19	2.71632
15.2	2.70579
15.21	2.70744
15.22	2.71106
15.23	2.70185
15.24	2.70777
15.25	2.68474
15.26	2.70415
15.27	2.73079
15.28	2.73079
15.29	2.73474
15.3	2.72948
15.31	2.70185
15.32	2.71961
15.33	2.70974
15.34	2.70777
15.35	2.7275
15.36	2.72158
15.37	2.70645
15.38	2.72652
15.39	2.70316
15.4	2.68671
15.41	2.70349
15.42	2.68408
15.43	2.68145
15.44	2.67421
15.45	2.7104
15.46	2.72553
15.47	2.75711
15.48	2.71204
15.49	2.71073
15.5	2.71369
15.51	2.70645
15.52	2.69296
15.53	2.68902
15.54	2.68573
15.55	2.70645
15.56	2.74264
15.57	2.70744
15.58	2.73079
15.59	2.71731
15.6	2.7502
15.61	2.71533
15.62	2.69264
15.63	2.73145
15.64	2.72981
15.65	2.69658
15.66	2.72422
15.67	2.70316
15.68	2.71797
15.69	2.73606
15.7	2.68935
15.71	2.68902
15.72	2.69132
15.73	2.70908
15.74	2.71303
15.75	2.70612
15.76	2.70941
15.77	2.69296
15.78	2.72191
15.79	2.73704
15.8	2.71336
15.81	2.72619
15.82	2.72652
15.83	2.71862
15.84	2.71895
15.85	2.72586
15.86	2.72981
15.87	2.71731
15.88	2.71632
15.89	2.73178
15.9	2.71468
15.91	2.74264
15.92	2.7025
15.93	2.70678
15.94	2.69889
15.95	2.71599
15.96	2.72224
15.97	2.70843
15.98	2.67948
15.99	2.71632
16	2.68474
16.01	2.73441
16.02	2.70514
16.03	2.70744
16.04	2.7275
16.05	2.74987
16.06	2.72323
16.07	2.70711
16.08	2.69231
16.09	2.69823
16.1	2.71797
16.11	2.7104
16.12	2.74428
16.13	2.71797
16.14	2.67948
16.15	2.71665
16.16	2.70875
16.17	2.7354
16.18	2.73869
16.19	2.72816
16.2	2.71632
16.21	2.70481
16.22	2.71862
16.23	2.74132
16.24	2.70843
16.25	2.71566
16.26	2.72125
16.27	2.7104
16.28	2.68902
16.29	2.72158
16.3	2.75086
16.31	2.71632
16.32	2.70678
16.33	2.70843
16.34	2.69724
16.35	2.7104
16.36	2.71303
16.37	2.68704
16.38	2.68869
16.39	2.71369
16.4	2.69033
16.41	2.69461
16.42	2.72685
16.43	2.71764
16.44	2.70908
16.45	2.72586
16.46	2.70678
16.47	2.71369
16.48	2.7127
16.49	2.72191
16.5	2.69592
16.51	2.73145
16.52	2.71797
16.53	2.69625
16.54	2.71764
16.55	2.7081
16.56	2.71139
16.57	2.68639
16.58	2.70481
16.59	2.70086
16.6	2.69494
16.61	2.71073
16.62	2.68079
16.63	2.70777
16.64	2.72257
16.65	2.70481
16.66	2.72356
16.67	2.74264
16.68	2.7252
16.69	2.70777
16.7	2.70349
16.71	2.72323
16.72	2.71665
16.73	2.68967
16.74	2.66632
16.75	2.68211
16.76	2.68046
16.77	2.7002
16.78	2.73079
16.79	2.72454
16.8	2.70514
16.81	2.72027
16.82	2.75086
16.83	2.72125
16.84	2.69757
16.85	2.66829
16.86	2.6775
16.87	2.7252
16.88	2.69856
16.89	2.70579
16.9	2.70514
16.91	2.69724
16.92	2.70185
16.93	2.72685
16.94	2.71862
16.95	2.71895
16.96	2.6831
16.97	2.70283
16.98	2.70579
16.99	2.69428
17	2.73047
17.01	2.69461
17.02	2.69757
17.03	2.70612
17.04	2.6956
17.05	2.70283
17.06	2.69987
17.07	2.70448
17.08	2.70415
17.09	2.6854
17.1	2.69329
17.11	2.73047
17.12	2.72619
17.13	2.70382
17.14	2.70283
17.15	2.70711
17.16	2.67092
17.17	2.70579
17.18	2.70711
17.19	2.71402
17.2	2.72487
17.21	2.69954
17.22	2.71994
17.23	2.67981
17.24	2.70546
17.25	2.70119
17.26	2.68967
17.27	2.70283
17.28	2.715
17.29	2.71369
17.3	2.7206
17.31	2.71632
17.32	2.70711
17.33	2.71073
17.34	2.71171
17.35	2.72422
17.36	2.71139
17.37	2.70218
17.38	2.71402
17.39	2.70612
17.4	2.71303
17.41	2.71928
17.42	2.72652
17.43	2.72158
17.44	2.70382
17.45	2.72125
17.46	2.70382
17.47	2.74889
17.48	2.69264
17.49	2.67685
17.5	2.68639
17.51	2.72422
17.52	2.71171
17.53	2.73112
17.54	2.69099
17.55	2.69691
17.56	2.74461
17.57	2.69362
17.58	2.72389
17.59	2.71171
17.6	2.73869
17.61	2.75382
17.62	2.67454
17.63	2.73079
17.64	2.71928
17.65	2.70777
17.66	2.70119
17.67	2.72158
17.68	2.70415
17.69	2.71895
17.7	2.6775
17.71	2.71665
17.72	2.71829
17.73	2.69658
17.74	2.71994
17.75	2.67158
17.76	2.69362
17.77	2.72093
17.78	2.72027
17.79	2.67948
17.8	2.68967
17.81	2.72981
17.82	2.73869
17.83	2.72718
17.84	2.69658
17.85	2.70579
17.86	2.70908
17.87	2.72093
17.88	2.71928
17.89	2.74001
17.9	2.70678
17.91	2.69921
17.92	2.69461
17.93	2.71566
17.94	2.70053
17.95	2.70053
17.96	2.71895
17.97	2.71731
17.98	2.7025
17.99	2.72356
18	2.71303
18.01	2.71961
18.02	2.70283
18.03	2.70218
18.04	2.68606
18.05	2.70579
18.06	2.70283
18.07	2.70843
18.08	2.7104
18.09	2.6831
18.1	2.70941
18.11	2.70744
18.12	2.73935
18.13	2.73737
18.14	2.71895
18.15	2.71402
18.16	2.69165
18.17	2.70481
18.18	2.72093
18.19	2.7104
18.2	2.67882
18.21	2.69527
18.22	2.7025
18.23	2.73672
18.24	2.6877
18.25	2.73047
18.26	2.70316
18.27	2.7127
18.28	2.69658
18.29	2.7081
18.3	2.7002
18.31	2.73079
18.32	2.72553
18.33	2.72356
18.34	2.69395
18.35	2.71533
18.36	2.70086
18.37	2.70908
18.38	2.71533
18.39	2.66763
18.4	2.70349
18.41	2.70415
18.42	2.69757
18.43	2.68573
18.44	2.71829
18.45	2.7206
18.46	2.67882
18.47	2.69461
18.48	2.69987
18.49	2.73112
18.5	2.69823
18.51	2.74198
18.52	2.68671
18.53	2.69527
18.54	2.70875
18.55	2.66895
18.56	2.70514
18.57	2.67586
18.58	2.69954
18.59	2.71106
18.6	2.69954
18.61	2.68441
18.62	2.70283
18.63	2.7275
18.64	2.69264
18.65	2.70579
18.66	2.71106
18.67	2.72027
18.68	2.71829
18.69	2.68046
18.7	2.71139
18.71	2.70711
18.72	2.70053
18.73	2.72586
18.74	2.69724
18.75	2.71566
18.76	2.7104
18.77	2.71073
18.78	2.71764
18.79	2.68112
18.8	2.71204
18.81	2.69033
18.82	2.70448
18.83	2.7081
18.84	2.74527
18.85	2.70744
18.86	2.6854
18.87	2.71435
18.88	2.70382
18.89	2.69658
18.9	2.68902
18.91	2.70316
18.92	2.68967
18.93	2.72158
18.94	2.73474
18.95	2.66928
18.96	2.66829
18.97	2.67586
18.98	2.71073
18.99	2.69724
19	2.70152
19.01	2.72356
19.02	2.70875
19.03	2.70349
19.04	2.69987
19.05	2.71435
19.06	2.71731
19.07	2.6956
19.08	2.69066
19.09	2.70382
19.1	2.68474
19.11	2.70283
19.12	2.715
19.13	2.68408
19.14	2.7104
19.15	2.71895
19.16	2.70612
19.17	2.72093
19.18	2.70579
19.19	2.69625
19.2	2.70283
19.21	2.72224
19.22	2.72454
19.23	2.66994
19.24	2.66237
19.25	2.71435
19.26	2.72422
19.27	2.72027
19.28	2.70777
19.29	2.70974
19.3	2.7127
19.31	2.69823
19.32	2.69362
19.33	2.71599
19.34	2.69757
19.35	2.69625
19.36	2.68244
19.37	2.69428
19.38	2.69527
19.39	2.69461
19.4	2.72718
19.41	2.72158
19.42	2.71533
19.43	2.73606
19.44	2.73376
19.45	2.7229
19.46	2.72652
19.47	2.68145
19.48	2.70579
19.49	2.6854
19.5	2.69987
19.51	2.7104
19.52	2.70316
19.53	2.70218
19.54	2.7206
19.55	2.71369
19.56	2.71435
19.57	2.68671
19.58	2.68935
19.59	2.69856
19.6	2.73277
19.61	2.70316
19.62	2.68013
19.63	2.71204
19.64	2.70875
19.65	2.69461
19.66	2.71204
19.67	2.71204
19.68	2.71303
19.69	2.68737
19.7	2.6854
19.71	2.71171
19.72	2.71797
19.73	2.69362
19.74	2.69395
19.75	2.68013
19.76	2.70283
19.77	2.71171
19.78	2.70316
19.79	2.74033
19.8	2.71303
19.81	2.71435
19.82	2.73672
19.83	2.73935
19.84	2.71797
19.85	2.67981
19.86	2.66961
19.87	2.71961
19.88	2.66796
19.89	2.71566
19.9	2.72619
19.91	2.72191
19.92	2.68474
19.93	2.67882
19.94	2.70448
19.95	2.71862
19.96	2.73441
19.97	2.70349
19.98	2.70448
19.99	2.73704
20	2.71402
20.01	2.71928
20.02	2.73441
20.03	2.72093
20.04	2.72718
20.05	2.69527
20.06	2.69099
20.07	2.72125
20.08	2.69329
20.09	2.69954
20.1	2.71961
20.11	2.71007
20.12	2.69099
20.13	2.68474
20.14	2.73145
20.15	2.71994
20.16	2.68902
20.17	2.69
20.18	2.67685
20.19	2.70612
20.2	2.65974
20.21	2.71402
20.22	2.69856
20.23	2.69428
20.24	2.665
20.25	2.66763
20.26	2.70875
20.27	2.67783
20.28	2.73112
20.29	2.73178
20.3	2.71895
20.31	2.70514
20.32	2.69428
20.33	2.7252
20.34	2.70941
20.35	2.68869
20.36	2.70645
20.37	2.70678
20.38	2.70777
20.39	2.69921
20.4	2.73343
20.41	2.72685
20.42	2.7025
20.43	2.67619
20.44	2.7002
20.45	2.70612
20.46	2.69066
20.47	2.6956
20.48	2.7002
20.49	2.7206
20.5	2.7229
20.51	2.69
20.52	2.68178
20.53	2.6956
20.54	2.7002
20.55	2.69231
20.56	2.73441
20.57	2.69658
20.58	2.69099
20.59	2.71237
20.6	2.7025
20.61	2.67224
20.62	2.7127
20.63	2.70283
20.64	2.70185
20.65	2.71698
20.66	2.68606
20.67	2.6877
20.68	2.70579
20.69	2.70382
20.7	2.68737
20.71	2.68869
20.72	2.67454
20.73	2.68046
20.74	2.70119
20.75	2.70053
20.76	2.69954
20.77	2.72652
20.78	2.70941
20.79	2.69691
20.8	2.70875
20.81	2.67882
20.82	2.67915
20.83	2.71632
20.84	2.72191
20.85	2.68967
20.86	2.69395
20.87	2.66698
20.88	2.72323
20.89	2.69461
20.9	2.66467
20.91	2.72158
20.92	2.73343
20.93	2.68013
20.94	2.6831
20.95	2.67553
20.96	2.66994
20.97	2.70283
20.98	2.71533
20.99	2.71599
21	2.71895
21.01	2.6604
21.02	2.71632
21.03	2.7127
21.04	2.67981
21.05	2.71895
21.06	2.7252
21.07	2.71402
21.08	2.6877
21.09	2.69066
21.1	2.69823
21.11	2.7377
21.12	2.7331
21.13	2.72783
21.14	2.73803
21.15	2.69954
21.16	2.72422
21.17	2.69296
21.18	2.68013
21.19	2.70908
21.2	2.71237
21.21	2.69691
21.22	2.72158
21.23	2.71171
21.24	2.7081
21.25	2.69231
21.26	2.68836
21.27	2.71171
21.28	2.68441
21.29	2.69889
21.3	2.69264
21.31	2.71402
21.32	2.68606
21.33	2.71435
21.34	2.67487
21.35	2.69724
21.36	2.70645
21.37	2.70744
21.38	2.66303
21.39	2.68441
21.4	2.68178
21.41	2.7206
21.42	2.70448
21.43	2.68803
21.44	2.67849
21.45	2.68408
21.46	2.69231
21.47	2.70316
21.48	2.71566
21.49	2.68902
21.5	2.70185
21.51	2.715
21.52	2.71895
21.53	2.69856
21.54	2.69132
21.55	2.68277
21.56	2.68145
21.57	2.68935
21.58	2.70218
21.59	2.7127
21.6	2.7127
21.61	2.72093
21.62	2.71665
21.63	2.72257
21.64	2.71665
21.65	2.70119
21.66	2.6877
21.67	2.71435
21.68	2.66698
21.69	2.70645
21.7	2.69132
21.71	2.69132
21.72	2.69362
21.73	2.71204
21.74	2.70974
21.75	2.69954
21.76	2.70119
21.77	2.73211
21.78	2.70382
21.79	2.68375
21.8	2.71369
21.81	2.715
21.82	2.74132
21.83	2.69856
21.84	2.7275
21.85	2.7002
21.86	2.69033
21.87	2.71303
21.88	2.7252
21.89	2.73803
21.9	2.72882
21.91	2.71007
21.92	2.71237
21.93	2.71665
21.94	2.70283
21.95	2.71764
21.96	2.68244
21.97	2.71435
21.98	2.71139
21.99	2.72783
22	2.6979
22.01	2.69921
22.02	2.71862
22.03	2.70415
22.04	2.69527
22.05	2.67619
22.06	2.74724
22.07	2.73902
22.08	2.68639
22.09	2.65678
22.1	2.68836
22.11	2.68869
22.12	2.66731
22.13	2.69757
22.14	2.715
22.15	2.70974
22.16	2.69362
22.17	2.68441
22.18	2.6979
22.19	2.70152
22.2	2.67849
22.21	2.6729
22.22	2.68507
22.23	2.69921
22.24	2.69724
22.25	2.68441
22.26	2.69987
22.27	2.68441
22.28	2.69099
22.29	2.71895
22.3	2.69889
22.31	2.70053
22.32	2.7104
22.33	2.68408
22.34	2.68145
22.35	2.7104
22.36	2.69428
22.37	2.71994
22.38	2.72224
22.39	2.71797
22.4	2.7252
22.41	2.6877
22.42	2.69132
22.43	2.67125
22.44	2.69362
22.45	2.72718
22.46	2.70843
22.47	2.71599
22.48	2.69987
22.49	2.72981
22.5	2.7104
22.51	2.70908
22.52	2.71961
22.53	2.73441
22.54	2.7127
22.55	2.69099
22.56	2.68836
22.57	2.71106
22.58	2.715
22.59	2.70316
22.6	2.70908
22.61	2.69527
22.62	2.68704
22.63	2.70218
22.64	2.71139
22.65	2.68408
22.66	2.69954
22.67	2.69296
22.68	2.70448
22.69	2.7104
22.7	2.7683
22.71	2.69165
22.72	2.69362
22.73	2.70843
22.74	2.67553
22.75	2.67981
22.76	2.68639
22.77	2.69
22.78	2.68869
22.79	2.68803
22.8	2.68967
22.81	2.68639
22.82	2.66862
22.83	2.67586
22.84	2.69461
22.85	2.67849
22.86	2.70053
22.87	2.70974
22.88	2.69856
22.89	2.68737
22.9	2.71402
22.91	2.71007
22.92	2.70152
22.93	2.67948
22.94	2.70448
22.95	2.69
22.96	2.70119
22.97	2.70481
22.98	2.73047
22.99	2.70316
23	2.69987
23.01	2.68639
23.02	2.7104
23.03	2.69099
23.04	2.68244
23.05	2.69823
23.06	2.70711
23.07	2.71402
23.08	2.70481
23.09	2.68507
23.1	2.70448
23.11	2.69198
23.12	2.65217
23.13	2.70185
23.14	2.66138
23.15	2.67882
23.16	2.68967
23.17	2.70316
23.18	2.68704
23.19	2.68671
23.2	2.69329
23.21	2.71862
23.22	2.72718
23.23	2.69132
23.24	2.70546
23.25	2.70382
23.26	2.69198
23.27	2.68408
23.28	2.71204
23.29	2.71073
23.3	2.69691
23.31	2.69
23.32	2.70448
23.33	2.66961
23.34	2.6831
23.35	2.71073
23.36	2.70974
23.37	2.70283
23.38	2.71731
23.39	2.71402
23.4	2.71862
23.41	2.70481
23.42	2.67027
23.43	2.68277
23.44	2.68277
23.45	2.67685
23.46	2.67783
23.47	2.68573
23.48	2.69461
23.49	2.66665
23.5	2.70875
23.51	2.71073
23.52	2.68803
23.53	2.7206
23.54	2.68935
23.55	2.73014
23.56	2.73244
23.57	2.68836
23.58	2.68507
23.59	2.71731
23.6	2.69921
23.61	2.68441
23.62	2.68573
23.63	2.68441
23.64	2.69823
23.65	2.68671
23.66	2.68408
23.67	2.6877
23.68	2.69856
23.69	2.71171
23.7	2.67323
23.71	2.69099
23.72	2.71829
23.73	2.68474
23.74	2.69395
23.75	2.70612
23.76	2.70777
23.77	2.7002
23.78	2.68375
23.79	2.70843
23.8	2.70448
23.81	2.68277
23.82	2.71468
23.83	2.69362
23.84	2.69099
23.85	2.69461
23.86	2.71829
23.87	2.71106
23.88	2.69
23.89	2.74395
23.9	2.71336
23.91	2.71204
23.92	2.71994
23.93	2.69724
23.94	2.7025
23.95	2.70119
23.96	2.7002
23.97	2.72454
23.98	2.69099
23.99	2.69329
24	2.70316
24.01	2.72981
24.02	2.70119
24.03	2.70941
24.04	2.73408
24.05	2.67158
24.06	2.66961
24.07	2.68704
24.08	2.70481
24.09	2.69329
24.1	2.67487
24.11	2.69856
24.12	2.71764
24.13	2.71336
24.14	2.70152
24.15	2.68869
24.16	2.68244
24.17	2.70053
24.18	2.68967
24.19	2.69461
24.2	2.70349
24.21	2.69132
24.22	2.68441
24.23	2.69527
24.24	2.73408
24.25	2.69264
24.26	2.69066
24.27	2.6729
24.28	2.69198
24.29	2.68606
24.3	2.71171
24.31	2.73178
24.32	2.7275
24.33	2.68836
24.34	2.69527
24.35	2.68639
24.36	2.65777
24.37	2.68046
24.38	2.68474
24.39	2.68836
24.4	2.70316
24.41	2.7252
24.42	2.7025
24.43	2.70448
24.44	2.71369
24.45	2.71566
24.46	2.71862
24.47	2.70283
24.48	2.70514
24.49	2.70875
24.5	2.70283
24.51	2.70514
24.52	2.7206
24.53	2.69494
24.54	2.70612
24.55	2.72224
24.56	2.69198
24.57	2.71797
24.58	2.68606
24.59	2.68967
24.6	2.70514
24.61	2.71237
24.62	2.68573
24.63	2.69231
24.64	2.70218
24.65	2.72487
24.66	2.72158
24.67	2.71303
24.68	2.70415
24.69	2.68869
24.7	2.69428
24.71	2.70908
24.72	2.70316
24.73	2.70908
24.74	2.68211
24.75	2.71435
24.76	2.72619
24.77	2.70481
24.78	2.70448
24.79	2.70645
24.8	2.71928
24.81	2.72454
24.82	2.7025
24.83	2.67783
24.84	2.6729
24.85	2.69066
24.86	2.69691
24.87	2.72027
24.88	2.70678
24.89	2.69954
24.9	2.6729
24.91	2.6979
24.92	2.65842
24.93	2.67981
24.94	2.7331
24.95	2.73408
24.96	2.69987
24.97	2.70875
24.98	2.69823
24.99	2.69527
25	2.70711
25.01	2.69198
25.02	2.66895
25.03	2.64263
25.04	2.68902
25.05	2.66336
25.06	2.69395
25.07	2.70185
25.08	2.68836
25.09	2.65612
25.1	2.71402
25.11	2.70843
25.12	2.72093
25.13	2.72586
25.14	2.72948
25.15	2.71435
25.16	2.68342
25.17	2.69592
25.18	2.70711
25.19	2.7252
25.2	2.69132
25.21	2.70185
25.22	2.73737
25.23	2.71829
25.24	2.69691
25.25	2.66599
25.26	2.67586
25.27	2.70546
25.28	2.68737
25.29	2.68967
25.3	2.65481
25.31	2.74494
25.32	2.66862
25.33	2.68935
25.34	2.71829
25.35	2.70283
25.36	2.72257
25.37	2.70711
25.38	2.69329
25.39	2.70448
25.4	2.68375
25.41	2.7104
25.42	2.69921
25.43	2.71797
25.44	2.69033
25.45	2.69
25.46	2.69625
25.47	2.69099
25.48	2.68573
25.49	2.70086
25.5	2.68967
25.51	2.68112
25.52	2.71928
25.53	2.70711
25.54	2.72158
25.55	2.67948
25.56	2.66434
25.57	2.70119
25.58	2.70382
25.59	2.67257
25.6	2.69724
25.61	2.72158
25.62	2.69132
25.63	2.68704
25.64	2.71237
25.65	2.66402
25.66	2.6752
25.67	2.66171
25.68	2.70382
25.69	2.715
25.7	2.69099
25.71	2.67092
25.72	2.68935
25.73	2.68671
25.74	2.715
25.75	2.73408
25.76	2.7229
25.77	2.68671
25.78	2.67257
25.79	2.70119
25.8	2.68803
25.81	2.70152
25.82	2.71435
25.83	2.74889
25.84	2.67257
25.85	2.70908
25.86	2.70185
25.87	2.70382
25.88	2.69132
25.89	2.67652
25.9	2.69066
25.91	2.70612
25.92	2.69198
25.93	2.71369
25.94	2.71435
25.95	2.7002
25.96	2.68277
25.97	2.69691
25.98	2.69296
25.99	2.71106
26	2.70053
26.01	2.70415
26.02	2.7025
26.03	2.71829
26.04	2.71533
26.05	2.70349
26.06	2.73376
26.07	2.72389
26.08	2.69823
26.09	2.69132
26.1	2.69921
26.11	2.67816
26.12	2.67652
26.13	2.6775
26.14	2.70678
26.15	2.70941
26.16	2.70974
26.17	2.70579
26.18	2.69592
26.19	2.69889
26.2	2.69428
26.21	2.68046
26.22	2.72652
26.23	2.69658
26.24	2.68671
26.25	2.67224
26.26	2.7252
26.27	2.66204
26.28	2.6979
26.29	2.68967
26.3	2.69461
26.31	2.71961
26.32	2.7104
26.33	2.67586
26.34	2.70382
26.35	2.67981
26.36	2.70086
26.37	2.69198
26.38	2.69132
26.39	2.65053
26.4	2.68277
26.41	2.72027
26.42	2.72882
26.43	2.71106
26.44	2.70711
26.45	2.67717
26.46	2.67125
26.47	2.69296
26.48	2.69724
26.49	2.69987
26.5	2.71171
26.51	2.71106
26.52	2.70218
26.53	2.71139
26.54	2.72586
26.55	2.69954
26.56	2.68046
26.57	2.68145
26.58	2.67981
26.59	2.69329
26.6	2.68704
26.61	2.68441
26.62	2.69198
26.63	2.70283
26.64	2.68573
26.65	2.69395
26.66	2.68967
26.67	2.6706
26.68	2.69165
26.69	2.6831
26.7	2.68737
26.71	2.69691
26.72	2.69165
26.73	2.7002
26.74	2.70514
26.75	2.67948
26.76	2.69099
26.77	2.72125
26.78	2.67652
26.79	2.67685
26.8	2.69823
26.81	2.67454
26.82	2.68935
26.83	2.70349
26.84	2.70481
26.85	2.69889
26.86	2.69823
26.87	2.69395
26.88	2.70645
26.89	2.72422
26.9	2.7127
26.91	2.70086
26.92	2.74001
26.93	2.73112
26.94	2.7331
26.95	2.70316
26.96	2.69198
26.97	2.71402
26.98	2.70053
26.99	2.71994
27	2.70086
27.01	2.69856
27.02	2.71369
27.03	2.68836
27.04	2.70053
27.05	2.6752
27.06	2.71204
27.07	2.71369
27.08	2.69198
27.09	2.69461
27.1	2.70546
27.11	2.69329
27.12	2.70086
27.13	2.70777
27.14	2.69889
27.15	2.67257
27.16	2.67619
27.17	2.71566
27.18	2.67948
27.19	2.67553
27.2	2.6854
27.21	2.68869
27.22	2.66632
27.23	2.70382
27.24	2.69856
27.25	2.68704
27.26	2.68573
27.27	2.67191
27.28	2.6775
27.29	2.7002
27.3	2.69592
27.31	2.68277
27.32	2.71369
27.33	2.73441
27.34	2.69329
27.35	2.68277
27.36	2.69954
27.37	2.66665
27.38	2.67257
27.39	2.6706
27.4	2.66665
27.41	2.6877
27.42	2.71566
27.43	2.69231
27.44	2.70152
27.45	2.67027
27.46	2.70053
27.47	2.70941
27.48	2.71237
27.49	2.68869
27.5	2.715
27.51	2.71928
27.52	2.63803
27.53	2.68375
27.54	2.6979
27.55	2.70744
27.56	2.69395
27.57	2.69987
27.58	2.66138
27.59	2.70415
27.6	2.68112
27.61	2.70053
27.62	2.69033
27.63	2.68836
27.64	2.70349
27.65	2.6831
27.66	2.70678
27.67	2.72093
27.68	2.69461
27.69	2.69198
27.7	2.70448
27.71	2.69691
27.72	2.69428
27.73	2.69231
27.74	2.68671
27.75	2.68441
27.76	2.7206
27.77	2.69132
27.78	2.72191
27.79	2.74099
27.8	2.71303
27.81	2.69395
27.82	2.67717
27.83	2.67717
27.84	2.66106
27.85	2.70744
27.86	2.73112
27.87	2.68079
27.88	2.68671
27.89	2.715
27.9	2.70152
27.91	2.70645
27.92	2.72586
27.93	2.73935
27.94	2.71731
27.95	2.6854
27.96	2.68112
27.97	2.70152
27.98	2.72224
27.99	2.69823
28	2.70349
28.01	2.68803
28.02	2.67981
28.03	2.69362
28.04	2.70382
28.05	2.68112
28.06	2.68737
28.07	2.70218
28.08	2.68704
28.09	2.68375
28.1	2.69264
28.11	2.69132
28.12	2.70218
28.13	2.70316
28.14	2.68507
28.15	2.69592
28.16	2.69592
28.17	2.6877
28.18	2.68408
28.19	2.69362
28.2	2.73014
28.21	2.69066
28.22	2.71303
28.23	2.71435
28.24	2.71106
28.25	2.70645
28.26	2.7081
28.27	2.6979
28.28	2.71764
28.29	2.70185
28.3	2.70974
28.31	2.73376
28.32	2.715
28.33	2.72323
28.34	2.65941
28.35	2.68869
28.36	2.71961
28.37	2.69494
28.38	2.72487
28.39	2.71566
28.4	2.72915
28.41	2.70448
28.42	2.68507
28.43	2.70546
28.44	2.74691
28.45	2.69198
28.46	2.68606
28.47	2.70974
28.48	2.68474
28.49	2.68507
28.5	2.70218
28.51	2.71632
28.52	2.72718
28.53	2.69395
28.54	2.71369
28.55	2.7081
28.56	2.7229
28.57	2.67981
28.58	2.68079
28.59	2.65415
28.6	2.6604
28.61	2.67816
28.62	2.70415
28.63	2.67981
28.64	2.68935
28.65	2.68507
28.66	2.65217
28.67	2.66895
28.68	2.71764
28.69	2.71731
28.7	2.72323
28.71	2.72323
28.72	2.7002
28.73	2.69231
28.74	2.70514
28.75	2.68507
28.76	2.69264
28.77	2.65908
28.78	2.67783
28.79	2.71073
28.8	2.71665
28.81	2.69987
28.82	2.6831
28.83	2.68507
28.84	2.71369
28.85	2.67652
28.86	2.70678
28.87	2.72652
28.88	2.72389
28.89	2.70086
28.9	2.70086
28.91	2.6956
28.92	2.69658
28.93	2.69329
28.94	2.69264
28.95	2.69658
28.96	2.69231
28.97	2.70711
28.98	2.69625
28.99	2.71303
29	2.68737
29.01	2.70053
29.02	2.69
29.03	2.72323
29.04	2.68737
29.05	2.68277
29.06	2.71764
29.07	2.67981
29.08	2.70941
29.09	2.71303
29.1	2.70283
29.11	2.74395
29.12	2.72454
29.13	2.73079
29.14	2.71106
29.15	2.68046
29.16	2.72586
29.17	2.71468
29.18	2.69296
29.19	2.70349
29.2	2.68967
29.21	2.67981
29.22	2.66994
29.23	2.65908
29.24	2.67487
29.25	2.69362
29.26	2.72783
29.27	2.70777
29.28	2.68836
29.29	2.6706
29.3	2.67915
29.31	2.67454
29.32	2.69889
29.33	2.70875
29.34	2.70843
29.35	2.70711
29.36	2.70119
29.37	2.71533
29.38	2.69592
29.39	2.69691
29.4	2.73507
29.41	2.71007
29.42	2.70086
29.43	2.7104
29.44	2.71862
29.45	2.72981
29.46	2.68507
29.47	2.68606
29.48	2.66303
29.49	2.68244
29.5	2.70152
29.51	2.69757
29.52	2.66731
29.53	2.69165
29.54	2.71007
29.55	2.69329
29.56	2.69494
29.57	2.66533
29.58	2.66599
29.59	2.66599
29.6	2.66237
29.61	2.70283
29.62	2.70612
29.63	2.67191
29.64	2.68573
29.65	2.66796
29.66	2.68244
29.67	2.67685
29.68	2.69132
29.69	2.70645
29.7	2.70678
29.71	2.69987
29.72	2.70481
29.73	2.68507
29.74	2.71303
29.75	2.73178
29.76	2.715
29.77	2.7081
29.78	2.68507
29.79	2.69987
29.8	2.71007
29.81	2.65678
29.82	2.66862
29.83	2.6979
29.84	2.67816
29.85	2.70185
29.86	2.69691
29.87	2.69428
29.88	2.69987
29.89	2.68375
29.9	2.69
29.91	2.70283
29.92	2.69658
29.93	2.69724
29.94	2.68375
29.95	2.68244
29.96	2.68211
29.97	2.69099
29.98	2.70481
29.99	2.66599
30	2.71435
