"BIO-KINE ASCII FILE"
"_COMMENT"	"MOS-500 Spectrometer"
"_COMMENT"	"Kinetics measurement"
"_COMMENT"	"Y Unit : Volt,  X Unit : s"
"_COMMENT"	"Excitation wavelength : 380 nm"
"_COMMENT"	"Fentes bandwidth =  1 nm"
"_COMMENT"	"HV= 1000V"
"_COMMENT"	"Timebase  1 =  .01 s   5001 pts"
"_SFM"	"SFM-400 /S  Advanced mode"
"_SFM"	"Ratio : S1: 2.5, S2: 0, S3: 0, S4: 1"
"_SFM"	"Content : S1: , S2: , S3: , S4:"
"_SFM"	"Concentration : S1: , S2: , S3: , S4:"
"_SFM"	"Total volume : 209 µl  Flow : 3.5 mL/s"
"_SFM"	"Acquisition start :  10 ms before stop"
"_SFM"	"cuve=FC-15, s1=10 ml , s2=10 ml , s3=10 ml , s4=1.9 ml"
"_UNITX"	"s"
"_UNITY"	"Volt"
"_DELTAX"	0
"_DATA"
1e-300	8.26944
0.01	8.4655
0.02	8.56123
0.03	8.71485
0.04	8.79149
0.05	8.80038
0.06	8.79873
0.07	8.87242
0.08	8.86978
0.09	8.84084
0.1	8.84939
0.11	8.86551
0.12	8.87735
0.13	8.85498
0.14	8.83492
0.15	8.83689
0.16	8.88755
0.17	8.88821
0.18	8.85268
0.19	8.81518
0.2	8.8586
0.21	8.89347
0.22	8.87242
0.23	8.90268
0.24	8.90827
0.25	8.82702
0.26	8.79972
0.27	8.82406
0.28	8.84117
0.29	8.85597
0.3	8.82768
0.31	8.82011
0.32	8.82406
0.33	8.85926
0.34	8.85597
0.35	8.8234
0.36	8.8336
0.37	8.83623
0.38	8.79347
0.39	8.77899
0.4	8.84972
0.41	8.79873
0.42	8.79445
0.43	8.79676
0.44	8.79906
0.45	8.82735
0.46	8.81057
0.47	8.78985
0.48	8.76386
0.49	8.79906
0.5	8.75926
0.51	8.70893
0.52	8.74708
0.53	8.78228
0.54	8.79774
0.55	8.72735
0.56	8.6734
0.57	8.68853
0.58	8.69873
0.59	8.70432
0.6	8.66452
0.61	8.70794
0.62	8.74972
0.63	8.70728
0.64	8.7109
0.65	8.74774
0.66	8.72833
0.67	8.73064
0.68	8.68064
0.69	8.75333
0.7	8.68129
0.71	8.67471
0.72	8.71156
0.73	8.7155
0.74	8.68425
0.75	8.67406
0.76	8.68886
0.77	8.73754
0.78	8.69083
0.79	8.69182
0.8	8.66814
0.81	8.6461
0.82	8.64577
0.83	8.64577
0.84	8.68064
0.85	8.60761
0.86	8.59313
0.87	8.64741
0.88	8.63787
0.89	8.64741
0.9	8.65662
0.91	8.62702
0.92	8.62537
0.93	8.55991
0.94	8.58623
0.95	8.56978
0.96	8.59313
0.97	8.5928
0.98	8.57076
0.99	8.63162
1	8.61846
1.01	8.60004
1.02	8.59609
1.03	8.60958
1.04	8.5609
1.05	8.57109
1.06	8.53063
1.07	8.52142
1.08	8.5257
1.09	8.58688
1.1	8.54346
1.11	8.56287
1.12	8.54412
1.13	8.49675
1.14	8.57076
1.15	8.50201
1.16	8.53557
1.17	8.52932
1.18	8.51451
1.19	8.48195
1.2	8.5007
1.21	8.52043
1.22	8.48984
1.23	8.51221
1.24	8.52405
1.25	8.53984
1.26	8.54412
1.27	8.50136
1.28	8.48096
1.29	8.53228
1.3	8.49938
1.31	8.50037
1.32	8.49017
1.33	8.48918
1.34	8.47372
1.35	8.47043
1.36	8.42668
1.37	8.44576
1.38	8.45826
1.39	8.503
1.4	8.4882
1.41	8.46024
1.42	8.4757
1.43	8.45859
1.44	8.43063
1.45	8.39708
1.46	8.44017
1.47	8.478
1.48	8.41616
1.49	8.38984
1.5	8.37142
1.51	8.36879
1.52	8.44905
1.53	8.41681
1.54	8.31846
1.55	8.41089
1.56	8.44609
1.57	8.43458
1.58	8.40497
1.59	8.43096
1.6	8.40826
1.61	8.34379
1.62	8.34642
1.63	8.3826
1.64	8.40892
1.65	8.41024
1.66	8.37142
1.67	8.35793
1.68	8.39576
1.69	8.37438
1.7	8.32076
1.71	8.33786
1.72	8.31254
1.73	8.35004
1.74	8.3599
1.75	8.30036
1.76	8.34543
1.77	8.34148
1.78	8.32339
1.79	8.31714
1.8	8.3303
1.81	8.32339
1.82	8.30201
1.83	8.34412
1.84	8.28128
1.85	8.33819
1.86	8.34477
1.87	8.3303
1.88	8.29214
1.89	8.31977
1.9	8.30826
1.91	8.30168
1.92	8.28063
1.93	8.27701
1.94	8.29444
1.95	8.26221
1.96	8.25596
1.97	8.21516
1.98	8.26714
1.99	8.28951
2	8.30201
2.01	8.30826
2.02	8.30135
2.03	8.27076
2.04	8.23424
2.05	8.18391
2.06	8.28852
2.07	8.23655
2.08	8.22964
2.09	8.25069
2.1	8.24576
2.11	8.19214
2.12	8.19049
2.13	8.25036
2.14	8.23951
2.15	8.24477
2.16	8.23655
2.17	8.14181
2.18	8.19773
2.19	8.22076
2.2	8.13951
2.21	8.16155
2.22	8.16615
2.23	8.18095
2.24	8.23819
2.25	8.21944
2.26	8.18655
2.27	8.17964
2.28	8.14904
2.29	8.17997
2.3	8.18556
2.31	8.14378
2.32	8.15727
2.33	8.14181
2.34	8.15694
2.35	8.20168
2.36	8.18424
2.37	8.15858
2.38	8.14576
2.39	8.13128
2.4	8.16747
2.41	8.19378
2.42	8.13622
2.43	8.11187
2.44	8.11648
2.45	8.1122
2.46	8.1678
2.47	8.1553
2.48	8.14904
2.49	8.12865
2.5	8.09082
2.51	8.06648
2.52	8.09937
2.53	8.13095
2.54	8.13786
2.55	8.19444
2.56	8.15168
2.57	8.11122
2.58	8.10793
2.59	8.09937
2.6	8.08457
2.61	8.04378
2.62	8.11516
2.63	8.09444
2.64	8.11122
2.65	8.09707
2.66	8.05628
2.67	8.07667
2.68	8.04674
2.69	8.08325
2.7	8.08523
2.71	8.02766
2.72	8.07503
2.73	8.02733
2.74	8.04838
2.75	8.01417
2.76	8.04049
2.77	8.02009
2.78	8.02832
2.79	8.02931
2.8	7.99444
2.81	8.05858
2.82	8.00792
2.83	8.01154
2.84	7.97601
2.85	7.9543
2.86	7.96417
2.87	7.96417
2.88	7.96516
2.89	7.99871
2.9	8.00102
2.91	7.95167
2.92	7.98819
2.93	7.96582
2.94	7.94608
2.95	7.9872
2.96	7.98654
2.97	7.95397
2.98	7.96319
2.99	7.97601
3	8.02931
3.01	8.02306
3.02	7.98819
3.03	7.9724
3.04	7.92305
3.05	7.96121
3.06	7.97634
3.07	7.94608
3.08	7.96615
3.09	7.95299
3.1	7.94838
3.11	7.97009
3.12	7.94674
3.13	7.90595
3.14	7.89312
3.15	7.91483
3.16	7.94411
3.17	7.89772
3.18	7.90035
3.19	7.8941
3.2	7.91022
3.21	7.902
3.22	7.90496
3.23	7.85924
3.24	7.9066
3.25	7.91812
3.26	7.92601
3.27	7.8293
3.28	7.90364
3.29	7.87799
3.3	7.89476
3.31	7.91417
3.32	7.8895
3.33	7.88884
3.34	7.89739
3.35	7.85233
3.36	7.86779
3.37	7.8997
3.38	7.87667
3.39	7.86746
3.4	7.82568
3.41	7.82075
3.42	7.83062
3.43	7.83917
3.44	7.86976
3.45	7.85693
3.46	7.79969
3.47	7.83127
3.48	7.85858
3.49	7.85101
3.5	7.84016
3.51	7.78752
3.52	7.79213
3.53	7.85299
3.54	7.84575
3.55	7.7941
3.56	7.83555
3.57	7.79081
3.58	7.75858
3.59	7.83818
3.6	7.87042
3.61	7.80792
3.62	7.7543
3.63	7.81252
3.64	7.78259
3.65	7.83391
3.66	7.83391
3.67	7.82798
3.68	7.81351
3.69	7.79542
3.7	7.77798
3.71	7.77798
3.72	7.73357
3.73	7.7645
3.74	7.7714
3.75	7.76318
3.76	7.76976
3.77	7.72305
3.78	7.78029
3.79	7.76252
3.8	7.75825
3.81	7.77009
3.82	7.74838
3.83	7.78654
3.84	7.78654
3.85	7.8043
3.86	7.72502
3.87	7.7168
3.88	7.7793
3.89	7.73752
3.9	7.72535
3.91	7.75693
3.92	7.69147
3.93	7.75956
3.94	7.7418
3.95	7.69114
3.96	7.69838
3.97	7.73028
3.98	7.71055
3.99	7.69574
4	7.75298
4.01	7.70463
4.02	7.68456
4.03	7.69147
4.04	7.6691
4.05	7.69772
4.06	7.69114
4.07	7.70759
4.08	7.70331
4.09	7.71581
4.1	7.73555
4.11	7.70857
4.12	7.64476
4.13	7.62897
4.14	7.69213
4.15	7.67173
4.16	7.64673
4.17	7.66515
4.18	7.67338
4.19	7.68259
4.2	7.62962
4.21	7.6737
4.22	7.62633
4.23	7.64048
4.24	7.59574
4.25	7.63587
4.26	7.6566
4.27	7.66976
4.28	7.6487
4.29	7.65265
4.3	7.63785
4.31	7.61153
4.32	7.6112
4.33	7.65265
4.34	7.63423
4.35	7.60101
4.36	7.63555
4.37	7.61581
4.38	7.6316
4.39	7.66351
4.4	7.64706
4.41	7.66943
4.42	7.6737
4.43	7.5941
4.44	7.57469
4.45	7.63719
4.46	7.57535
4.47	7.58982
4.48	7.62666
4.49	7.60462
4.5	7.61022
4.51	7.58225
4.52	7.55462
4.53	7.63291
4.54	7.58522
4.55	7.57831
4.56	7.61581
4.57	7.62305
4.58	7.57666
4.59	7.55824
4.6	7.5714
4.61	7.54344
4.62	7.5362
4.63	7.55824
4.64	7.526
4.65	7.60857
4.66	7.59739
4.67	7.60857
4.68	7.56449
4.69	7.56679
4.7	7.51613
4.71	7.52239
4.72	7.53686
4.73	7.55298
4.74	7.56778
4.75	7.52008
4.76	7.54475
4.77	7.52008
4.78	7.52929
4.79	7.55758
4.8	7.55989
4.81	7.57304
4.82	7.56054
4.83	7.56252
4.84	7.51285
4.85	7.5112
4.86	7.55298
4.87	7.526
4.88	7.48258
4.89	7.49475
4.9	7.51317
4.91	7.55923
4.92	7.54969
4.93	7.49475
4.94	7.51877
4.95	7.49212
4.96	7.46548
4.97	7.49903
4.98	7.45429
4.99	7.44278
5	7.46909
5.01	7.501
5.02	7.51844
5.03	7.49442
5.04	7.50002
5.05	7.46548
5.06	7.46021
5.07	7.48324
5.08	7.49936
5.09	7.51186
5.1	7.47238
5.11	7.48456
5.12	7.43126
5.13	7.46219
5.14	7.5089
5.15	7.43061
5.16	7.376
5.17	7.45133
5.18	7.44179
5.19	7.45298
5.2	7.43883
5.21	7.38389
5.22	7.39574
5.23	7.41909
5.24	7.46416
5.25	7.40495
5.26	7.42074
5.27	7.4362
5.28	7.45363
5.29	7.41021
5.3	7.40133
5.31	7.41087
5.32	7.38357
5.33	7.45495
5.34	7.41975
5.35	7.3987
5.36	7.40396
5.37	7.41547
5.38	7.38916
5.39	7.36218
5.4	7.42534
5.41	7.37238
5.42	7.38949
5.43	7.40232
5.44	7.40495
5.45	7.38784
5.46	7.35429
5.47	7.40692
5.48	7.40528
5.49	7.29179
5.5	7.39146
5.51	7.40725
5.52	7.35133
5.53	7.34343
5.54	7.3783
5.55	7.39146
5.56	7.41218
5.57	7.39278
5.58	7.35034
5.59	7.32863
5.6	7.32995
5.61	7.34146
5.62	7.32534
5.63	7.35495
5.64	7.39278
5.65	7.39475
5.66	7.36843
5.67	7.38784
5.68	7.34146
5.69	7.35363
5.7	7.37666
5.71	7.36087
5.72	7.32501
5.73	7.35396
5.74	7.32929
5.75	7.39672
5.76	7.38422
5.77	7.32074
5.78	7.25231
5.79	7.32205
5.8	7.38982
5.81	7.32764
5.82	7.25034
5.83	7.31514
5.84	7.33422
5.85	7.35166
5.86	7.32666
5.87	7.2931
5.88	7.29902
5.89	7.34442
5.9	7.27402
5.91	7.3533
5.92	7.29968
5.93	7.32699
5.94	7.31843
5.95	7.30955
5.96	7.28948
5.97	7.26975
5.98	7.32205
5.99	7.29705
6	7.34047
6.01	7.33225
6.02	7.30791
6.03	7.31909
6.04	7.29376
6.05	7.26415
6.06	7.31087
6.07	7.26646
6.08	7.27633
6.09	7.29837
6.1	7.20856
6.11	7.27962
6.12	7.30462
6.13	7.29146
6.14	7.25396
6.15	7.21415
6.16	7.26119
6.17	7.28159
6.18	7.2056
6.19	7.23159
6.2	7.28225
6.21	7.25034
6.22	7.2704
6.23	7.19475
6.24	7.26087
6.25	7.21317
6.26	7.21317
6.27	7.23389
6.28	7.27896
6.29	7.29442
6.3	7.29343
6.31	7.26218
6.32	7.26284
6.33	7.24211
6.34	7.22731
6.35	7.24705
6.36	7.24738
6.37	7.24902
6.38	7.2329
6.39	7.2533
6.4	7.25462
6.41	7.19442
6.42	7.24705
6.43	7.27008
6.44	7.24771
6.45	7.25494
6.46	7.15988
6.47	7.18685
6.48	7.25823
6.49	7.20757
6.5	7.21744
6.51	7.2431
6.52	7.22435
6.53	7.24014
6.54	7.23126
6.55	7.24639
6.56	7.16843
6.57	7.20593
6.58	7.17336
6.59	7.23192
6.6	7.25626
6.61	7.23126
6.62	7.17205
6.63	7.1579
6.64	7.17567
6.65	7.13455
6.66	7.16843
6.67	7.1704
6.68	7.16645
6.69	7.18455
6.7	7.16382
6.71	7.18948
6.72	7.19178
6.73	7.19442
6.74	7.20264
6.75	7.12928
6.76	7.18027
6.77	7.21218
6.78	7.17599
6.79	7.14277
6.8	7.15363
6.81	7.1408
6.82	7.1783
6.83	7.15395
6.84	7.16218
6.85	7.17303
6.86	7.17007
6.87	7.14672
6.88	7.15757
6.89	7.16777
6.9	7.16711
6.91	7.17698
6.92	7.16744
6.93	7.18224
6.94	7.17665
6.95	7.15132
6.96	7.1227
6.97	7.11382
6.98	7.11284
6.99	7.14606
7	7.13027
7.01	7.14968
7.02	7.07731
7.03	7.06481
7.04	7.10955
7.05	7.17896
7.06	7.18981
7.07	7.10264
7.08	7.13488
7.09	7.14474
7.1	7.1283
7.11	7.12139
7.12	7.09803
7.13	7.09112
7.14	7.07501
7.15	7.11974
7.16	7.12731
7.17	7.15527
7.18	7.17007
7.19	7.1283
7.2	7.11218
7.21	7.04836
7.22	7.06678
7.23	7.10395
7.24	7.10889
7.25	7.09606
7.26	7.11415
7.27	7.11284
7.28	7.12961
7.29	7.10231
7.3	7.10593
7.31	7.0908
7.32	7.03783
7.33	7.11284
7.34	7.02764
7.35	7.07566
7.36	7.09672
7.37	7.11086
7.38	7.16284
7.39	7.1204
7.4	7.09573
7.41	7.09343
7.42	7.13652
7.43	7.1056
7.44	7.04112
7.45	7.09376
7.46	7.08158
7.47	7.08027
7.48	7.10757
7.49	7.13323
7.5	7.05691
7.51	7.07369
7.52	7.11612
7.53	7.05954
7.54	7.01119
7.55	7.01645
7.56	7.04704
7.57	7.03816
7.58	7.03158
7.59	7.04112
7.6	7.11711
7.61	7.1056
7.62	7.07402
7.63	7.07139
7.64	7.05264
7.65	7.03158
7.66	7.08783
7.67	7.06185
7.68	7.06678
7.69	7.06777
7.7	7.06579
7.71	7.06711
7.72	7.06678
7.73	7.00856
7.74	7.03224
7.75	7.09376
7.76	7.05922
7.77	7.05658
7.78	6.99112
7.79	7.01349
7.8	7.0227
7.81	7.07237
7.82	7.05494
7.83	7.06645
7.84	7.02994
7.85	7.04046
7.86	7.04803
7.87	7.0375
7.88	7.05658
7.89	7.03816
7.9	7.02303
7.91	7.01349
7.92	7.0352
7.93	7.03487
7.94	7.05691
7.95	6.99342
7.96	7.01908
7.97	7.00691
7.98	7.0431
7.99	6.99013
8	7.00461
8.01	7.00395
8.02	7.03093
8.03	7.00198
8.04	7.00757
8.05	7.03191
8.06	7.01217
8.07	7.0056
8.08	7.04408
8.09	6.99704
8.1	7.02698
8.11	7.06645
8.12	7.02303
8.13	6.94309
8.14	7.01875
8.15	6.96941
8.16	6.97632
8.17	6.96349
8.18	6.97895
8.19	6.99375
8.2	6.99869
8.21	6.9704
8.22	6.94276
8.23	6.98059
8.24	6.99112
8.25	6.98553
8.26	7.0125
8.27	6.99967
8.28	6.93882
8.29	6.92007
8.3	6.97336
8.31	6.97961
8.32	6.9523
8.33	6.97369
8.34	6.99046
8.35	6.98191
8.36	6.93553
8.37	6.95527
8.38	6.97632
8.39	6.98652
8.4	6.98487
8.41	6.97303
8.42	6.95395
8.43	6.94244
8.44	6.94803
8.45	6.9102
8.46	6.95559
8.47	6.94836
8.48	6.9523
8.49	6.91941
8.5	6.9977
8.51	6.96316
8.52	6.93092
8.53	6.9579
8.54	6.93487
8.55	6.93651
8.56	6.99474
8.57	6.91415
8.58	6.97204
8.59	6.97204
8.6	6.9352
8.61	6.92796
8.62	6.96316
8.63	6.98586
8.64	7.0125
8.65	6.97829
8.66	6.97566
8.67	6.95691
8.68	7.00625
8.69	6.94178
8.7	6.89211
8.71	6.91842
8.72	6.92467
8.73	6.9375
8.74	6.93158
8.75	6.90888
8.76	6.9148
8.77	6.93092
8.78	6.93355
8.79	6.95395
8.8	6.94145
8.81	6.93323
8.82	6.91612
8.83	6.90066
8.84	6.87632
8.85	6.9204
8.86	6.85625
8.87	6.89309
8.88	6.83684
8.89	6.85987
8.9	6.91842
8.91	6.91283
8.92	6.87401
8.93	6.88454
8.94	6.93158
8.95	6.89375
8.96	6.91151
8.97	6.94046
8.98	6.89013
8.99	6.91184
9	6.89671
9.01	6.90493
9.02	6.87533
9.03	6.91974
9.04	6.90362
9.05	6.90658
9.06	6.93257
9.07	6.87007
9.08	6.91382
9.09	6.9148
9.1	6.92237
9.11	6.91151
9.12	6.94244
9.13	6.89572
9.14	6.90625
9.15	6.93783
9.16	6.8773
9.17	6.89671
9.18	6.90165
9.19	6.90132
9.2	6.90329
9.21	6.87961
9.22	6.89079
9.23	6.85526
9.24	6.85855
9.25	6.86447
9.26	6.88947
9.27	6.84901
9.28	6.83914
9.29	6.85329
9.3	6.88125
9.31	6.85099
9.32	6.85263
9.33	6.85888
9.34	6.85197
9.35	6.8954
9.36	6.81776
9.37	6.84441
9.38	6.85724
9.39	6.82039
9.4	6.83158
9.41	6.8546
9.42	6.86579
9.43	6.84276
9.44	6.83256
9.45	6.8171
9.46	6.88322
9.47	6.90099
9.48	6.8398
9.49	6.87138
9.5	6.8727
9.51	6.83717
9.52	6.86513
9.53	6.87303
9.54	6.8625
9.55	6.79013
9.56	6.85625
9.57	6.84408
9.58	6.88421
9.59	6.78552
9.6	6.88191
9.61	6.87697
9.62	6.825
9.63	6.78947
9.64	6.86349
9.65	6.85757
9.66	6.81809
9.67	6.85395
9.68	6.85757
9.69	6.81974
9.7	6.8648
9.71	6.83125
9.72	6.81908
9.73	6.85888
9.74	6.89507
9.75	6.82434
9.76	6.80296
9.77	6.88553
9.78	6.85822
9.79	6.79276
9.8	6.84408
9.81	6.84145
9.82	6.82796
9.83	6.81283
9.84	6.79145
9.85	6.82401
9.86	6.8046
9.87	6.80164
9.88	6.83388
9.89	6.84671
9.9	6.82171
9.91	6.85592
9.92	6.8352
9.93	6.77138
9.94	6.84178
9.95	6.82006
9.96	6.83618
9.97	6.84868
9.98	6.83224
9.99	6.86283
10	6.81381
10.01	6.83224
10.02	6.8
10.03	6.78454
10.04	6.77269
10.05	6.8421
10.06	6.88158
10.07	6.79112
10.08	6.8671
10.09	6.78487
10.1	6.76644
10.11	6.80296
10.12	6.81513
10.13	6.76381
10.14	6.79572
10.15	6.79375
10.16	6.8023
10.17	6.78059
10.18	6.83651
10.19	6.81677
10.2	6.78256
10.21	6.72927
10.22	6.79473
10.23	6.78783
10.24	6.80296
10.25	6.83947
10.26	6.75197
10.27	6.78816
10.28	6.79506
10.29	6.76381
10.3	6.78487
10.31	6.81118
10.32	6.7671
10.33	6.78651
10.34	6.81776
10.35	6.81414
10.36	6.77335
10.37	6.75789
10.38	6.71381
10.39	6.77796
10.4	6.75296
10.41	6.775
10.42	6.79704
10.43	6.76973
10.44	6.73881
10.45	6.775
10.46	6.73848
10.47	6.79704
10.48	6.78585
10.49	6.77467
10.5	6.77105
10.51	6.75427
10.52	6.72927
10.53	6.79112
10.54	6.76579
10.55	6.77105
10.56	6.80954
10.57	6.77796
10.58	6.725
10.59	6.75394
10.6	6.80625
10.61	6.80822
10.62	6.73355
10.63	6.77204
10.64	6.73059
10.65	6.71973
10.66	6.77697
10.67	6.8046
10.68	6.75
10.69	6.77138
10.7	6.72664
10.71	6.76513
10.72	6.77566
10.73	6.73684
10.74	6.77894
10.75	6.8023
10.76	6.76973
10.77	6.73223
10.78	6.77993
10.79	6.78552
10.8	6.77072
10.81	6.75789
10.82	6.76085
10.83	6.75987
10.84	6.75855
10.85	6.74539
10.86	6.77829
10.87	6.74605
10.88	6.74802
10.89	6.78519
10.9	6.7444
10.91	6.70855
10.92	6.66151
10.93	6.7319
10.94	6.76809
10.95	6.74013
10.96	6.77269
10.97	6.74473
10.98	6.75033
10.99	6.72796
11	6.80098
11.01	6.7546
11.02	6.72565
11.03	6.72894
11.04	6.79079
11.05	6.74342
11.06	6.73322
11.07	6.72598
11.08	6.70986
11.09	6.70723
11.1	6.74934
11.11	6.7421
11.12	6.71611
11.13	6.73158
11.14	6.71809
11.15	6.72072
11.16	6.74539
11.17	6.75592
11.18	6.80197
11.19	6.75592
11.2	6.7444
11.21	6.73585
11.22	6.71447
11.23	6.7444
11.24	6.70197
11.25	6.75263
11.26	6.75033
11.27	6.68092
11.28	6.69736
11.29	6.69769
11.3	6.71315
11.31	6.74276
11.32	6.73158
11.33	6.71348
11.34	6.74835
11.35	6.69243
11.36	6.67335
11.37	6.7194
11.38	6.70625
11.39	6.67269
11.4	6.71052
11.41	6.66282
11.42	6.70592
11.43	6.74473
11.44	6.76809
11.45	6.7
11.46	6.71217
11.47	6.70921
11.48	6.65888
11.49	6.72204
11.5	6.70657
11.51	6.68453
11.52	6.70065
11.53	6.71381
11.54	6.725
11.55	6.68552
11.56	6.72894
11.57	6.74079
11.58	6.68388
11.59	6.67598
11.6	6.62795
11.61	6.69802
11.62	6.68026
11.63	6.66217
11.64	6.70493
11.65	6.61743
11.66	6.7023
11.67	6.71546
11.68	6.64802
11.69	6.66085
11.7	6.70888
11.71	6.69407
11.72	6.67236
11.73	6.74506
11.74	6.71546
11.75	6.68157
11.76	6.72631
11.77	6.69572
11.78	6.65986
11.79	6.71381
11.8	6.69671
11.81	6.67631
11.82	6.62401
11.83	6.70789
11.84	6.69375
11.85	6.64605
11.86	6.72532
11.87	6.6717
11.88	6.63552
11.89	6.65328
11.9	6.71118
11.91	6.73158
11.92	6.70098
11.93	6.64769
11.94	6.65822
11.95	6.71217
11.96	6.66874
11.97	6.67993
11.98	6.69703
11.99	6.69539
12	6.6523
12.01	6.68223
12.02	6.65559
12.03	6.67467
12.04	6.70394
12.05	6.68223
12.06	6.66019
12.07	6.66545
12.08	6.6569
12.09	6.67828
12.1	6.67763
12.11	6.64638
12.12	6.66545
12.13	6.64177
12.14	6.69769
12.15	6.6467
12.16	6.67138
12.17	6.69309
12.18	6.70723
12.19	6.67105
12.2	6.67664
12.21	6.65394
12.22	6.60526
12.23	6.67072
12.24	6.73815
12.25	6.70592
12.26	6.62565
12.27	6.63618
12.28	6.68585
12.29	6.64736
12.3	6.64473
12.31	6.63848
12.32	6.66611
12.33	6.69111
12.34	6.71381
12.35	6.63322
12.36	6.64736
12.37	6.63782
12.38	6.6796
12.39	6.71019
12.4	6.65822
12.41	6.60855
12.42	6.62368
12.43	6.68717
12.44	6.62861
12.45	6.63453
12.46	6.63519
12.47	6.66315
12.48	6.63223
12.49	6.67894
12.5	6.69638
12.51	6.65592
12.52	6.61315
12.53	6.64934
12.54	6.66184
12.55	6.64078
12.56	6.65986
12.57	6.66776
12.58	6.6194
12.59	6.66447
12.6	6.65065
12.61	6.6296
12.62	6.65986
12.63	6.66743
12.64	6.61216
12.65	6.61743
12.66	6.63355
12.67	6.67072
12.68	6.65197
12.69	6.65427
12.7	6.64243
12.71	6.61644
12.72	6.61348
12.73	6.61907
12.74	6.65263
12.75	6.6694
12.76	6.65328
12.77	6.61743
12.78	6.67039
12.79	6.6523
12.8	6.63947
12.81	6.62006
12.82	6.60723
12.83	6.62631
12.84	6.65493
12.85	6.6523
12.86	6.67467
12.87	6.62532
12.88	6.64111
12.89	6.63881
12.9	6.63585
12.91	6.62236
12.92	6.63618
12.93	6.62236
12.94	6.63552
12.95	6.57697
12.96	6.59144
12.97	6.66217
12.98	6.63124
12.99	6.64078
13	6.61874
13.01	6.57828
13.02	6.64539
13.03	6.64901
13.04	6.65888
13.05	6.63881
13.06	6.62861
13.07	6.61019
13.08	6.60394
13.09	6.65855
13.1	6.6296
13.11	6.62302
13.12	6.6046
13.13	6.59045
13.14	6.62828
13.15	6.62006
13.16	6.60526
13.17	6.60493
13.18	6.61809
13.19	6.59572
13.2	6.65328
13.21	6.57729
13.22	6.61085
13.23	6.59111
13.24	6.58552
13.25	6.60394
13.26	6.6319
13.27	6.58914
13.28	6.64078
13.29	6.5944
13.3	6.58552
13.31	6.62006
13.32	6.60887
13.33	6.58815
13.34	6.61315
13.35	6.59572
13.36	6.60591
13.37	6.6319
13.38	6.62401
13.39	6.59637
13.4	6.62565
13.41	6.64835
13.42	6.58651
13.43	6.5796
13.44	6.59769
13.45	6.67236
13.46	6.6342
13.47	6.62532
13.48	6.62927
13.49	6.6273
13.5	6.58881
13.51	6.57499
13.52	6.60361
13.53	6.63026
13.54	6.63091
13.55	6.57795
13.56	6.59012
13.57	6.64506
13.58	6.60032
13.59	6.58256
13.6	6.54407
13.61	6.63749
13.62	6.58223
13.63	6.55591
13.64	6.58552
13.65	6.6092
13.66	6.65098
13.67	6.64309
13.68	6.56216
13.69	6.5569
13.7	6.61282
13.71	6.63848
13.72	6.62894
13.73	6.56907
13.74	6.57104
13.75	6.58322
13.76	6.61381
13.77	6.59177
13.78	6.55098
13.79	6.57203
13.8	6.63947
13.81	6.60262
13.82	6.58124
13.83	6.54703
13.84	6.58683
13.85	6.59177
13.86	6.5444
13.87	6.57828
13.88	6.61315
13.89	6.56348
13.9	6.5944
13.91	6.55854
13.92	6.57039
13.93	6.57499
13.94	6.60098
13.95	6.61907
13.96	6.56052
13.97	6.55229
13.98	6.56743
13.99	6.55822
14	6.5796
14.01	6.60295
14.02	6.60131
14.03	6.57828
14.04	6.50229
14.05	6.56315
14.06	6.58881
14.07	6.58453
14.08	6.62006
14.09	6.55624
14.1	6.58552
14.11	6.56644
14.12	6.59144
14.13	6.54243
14.14	6.55295
14.15	6.56512
14.16	6.56216
14.17	6.5171
14.18	6.54111
14.19	6.59506
14.2	6.57433
14.21	6.574
14.22	6.59012
14.23	6.58782
14.24	6.49637
14.25	6.48848
14.26	6.54703
14.27	6.58947
14.28	6.57039
14.29	6.60164
14.3	6.59637
14.31	6.54243
14.32	6.60361
14.33	6.61677
14.34	6.57006
14.35	6.60953
14.36	6.62894
14.37	6.54637
14.38	6.54144
14.39	6.57104
14.4	6.56052
14.41	6.57828
14.42	6.51677
14.43	6.48946
14.44	6.58519
14.45	6.57664
14.46	6.55328
14.47	6.56447
14.48	6.54144
14.49	6.55098
14.5	6.54802
14.51	6.53157
14.52	6.60624
14.53	6.64243
14.54	6.59177
14.55	6.59703
14.56	6.58519
14.57	6.59868
14.58	6.57006
14.59	6.56479
14.6	6.60262
14.61	6.57664
14.62	6.57368
14.63	6.5421
14.64	6.49177
14.65	6.53354
14.66	6.56381
14.67	6.57072
14.68	6.57993
14.69	6.58223
14.7	6.58979
14.71	6.56118
14.72	6.53683
14.73	6.52039
14.74	6.54275
14.75	6.50887
14.76	6.58716
14.77	6.55986
14.78	6.55262
14.79	6.57269
14.8	6.53749
14.81	6.55032
14.82	6.53815
14.83	6.53354
14.84	6.56644
14.85	6.53782
14.86	6.54144
14.87	6.53716
14.88	6.52335
14.89	6.55394
14.9	6.54275
14.91	6.50131
14.92	6.57433
14.93	6.55624
14.94	6.53617
14.95	6.56447
14.96	6.54933
14.97	6.50986
14.98	6.51973
14.99	6.52828
15	6.54933
15.01	6.53025
15.02	6.52203
15.03	6.57631
15.04	6.55986
15.05	6.54308
15.06	6.53914
15.07	6.55328
15.08	6.53453
15.09	6.59374
15.1	6.50131
15.11	6.56677
15.12	6.51348
15.13	6.54078
15.14	6.56381
15.15	6.52729
15.16	6.49242
15.17	6.5569
15.18	6.56512
15.19	6.54966
15.2	6.55591
15.21	6.52039
15.22	6.55723
15.23	6.52729
15.24	6.55558
15.25	6.54275
15.26	6.51446
15.27	6.54506
15.28	6.56808
15.29	6.54243
15.3	6.58618
15.31	6.55196
15.32	6.57269
15.33	6.52137
15.34	6.47894
15.35	6.53552
15.36	6.53815
15.37	6.55065
15.38	6.55065
15.39	6.55986
15.4	6.54868
15.41	6.52664
15.42	6.52499
15.43	6.53552
15.44	6.60855
15.45	6.5615
15.46	6.49374
15.47	6.46019
15.48	6.51611
15.49	6.47828
15.5	6.51578
15.51	6.52828
15.52	6.53058
15.53	6.54045
15.54	6.55229
15.55	6.51348
15.56	6.54012
15.57	6.56052
15.58	6.5217
15.59	6.52598
15.6	6.57598
15.61	6.56414
15.62	6.50163
15.63	6.48979
15.64	6.50624
15.65	6.5365
15.66	6.48913
15.67	6.53157
15.68	6.52696
15.69	6.52992
15.7	6.53025
15.71	6.53453
15.72	6.52335
15.73	6.52433
15.74	6.56447
15.75	6.52664
15.76	6.52828
15.77	6.49242
15.78	6.50723
15.79	6.50361
15.8	6.46019
15.81	6.52433
15.82	6.5092
15.83	6.53321
15.84	6.524
15.85	6.4967
15.86	6.52729
15.87	6.52499
15.88	6.55032
15.89	6.51808
15.9	6.549
15.91	6.53486
15.92	6.57762
15.93	6.53453
15.94	6.5342
15.95	6.48519
15.96	6.53881
15.97	6.52466
15.98	6.51578
15.99	6.52861
16	6.55328
16.01	6.55262
16.02	6.54539
16.03	6.51545
16.04	6.51644
16.05	6.49933
16.06	6.51479
16.07	6.5467
16.08	6.51545
16.09	6.53782
16.1	6.54736
16.11	6.48091
16.12	6.48946
16.13	6.50262
16.14	6.51413
16.15	6.48288
16.16	6.50032
16.17	6.53223
16.18	6.52236
16.19	6.49341
16.2	6.50196
16.21	6.53223
16.22	6.4865
16.23	6.48716
16.24	6.49407
16.25	6.50163
16.26	6.49407
16.27	6.46973
16.28	6.49275
16.29	6.51446
16.3	6.51973
16.31	6.50098
16.32	6.53683
16.33	6.54308
16.34	6.51775
16.35	6.53058
16.36	6.48617
16.37	6.54374
16.38	6.53387
16.39	6.53881
16.4	6.5217
16.41	6.46709
16.42	6.58651
16.43	6.50065
16.44	6.53486
16.45	6.5046
16.46	6.50821
16.47	6.51644
16.48	6.55098
16.49	6.53124
16.5	6.48486
16.51	6.5069
16.52	6.49407
16.53	6.48946
16.54	6.46282
16.55	6.48387
16.56	6.4819
16.57	6.47499
16.58	6.47762
16.59	6.4944
16.6	6.49637
16.61	6.49374
16.62	6.51348
16.63	6.51381
16.64	6.50723
16.65	6.53025
16.66	6.50196
16.67	6.50427
16.68	6.51282
16.69	6.45755
16.7	6.51512
16.71	6.45459
16.72	6.51775
16.73	6.48617
16.74	6.45525
16.75	6.46775
16.76	6.51249
16.77	6.5217
16.78	6.49933
16.79	6.47992
16.8	6.46644
16.81	6.49867
16.82	6.48749
16.83	6.50492
16.84	6.42828
16.85	6.45295
16.86	6.47565
16.87	6.45821
16.88	6.49209
16.89	6.49604
16.9	6.48288
16.91	6.43749
16.92	6.4467
16.93	6.44933
16.94	6.45492
16.95	6.46315
16.96	6.44078
16.97	6.48881
16.98	6.52269
16.99	6.51479
17	6.52762
17.01	6.48979
17.02	6.49341
17.03	6.48716
17.04	6.50262
17.05	6.50986
17.06	6.52598
17.07	6.46973
17.08	6.45459
17.09	6.50328
17.1	6.47334
17.11	6.46775
17.12	6.50196
17.13	6.49407
17.14	6.47334
17.15	6.49111
17.16	6.5046
17.17	6.47696
17.18	6.47598
17.19	6.50854
17.2	6.50492
17.21	6.46874
17.22	6.47598
17.23	6.44867
17.24	6.47433
17.25	6.46446
17.26	6.44308
17.27	6.48716
17.28	6.46282
17.29	6.46677
17.3	6.47499
17.31	6.51085
17.32	6.47565
17.33	6.48782
17.34	6.48979
17.35	6.52335
17.36	6.49736
17.37	6.45953
17.38	6.4763
17.39	6.50624
17.4	6.5171
17.41	6.53058
17.42	6.48223
17.43	6.50723
17.44	6.52696
17.45	6.46315
17.46	6.52104
17.47	6.50196
17.48	6.52894
17.49	6.45723
17.5	6.51479
17.51	6.48815
17.52	6.49999
17.53	6.49177
17.54	6.52367
17.55	6.49242
17.56	6.48321
17.57	6.52565
17.58	6.46973
17.59	6.47861
17.6	6.45032
17.61	6.50788
17.62	6.4615
17.63	6.47795
17.64	6.4763
17.65	6.46973
17.66	6.45098
17.67	6.4615
17.68	6.43321
17.69	6.47729
17.7	6.49308
17.71	6.46084
17.72	6.43387
17.73	6.43617
17.74	6.49571
17.75	6.51874
17.76	6.45953
17.77	6.48584
17.78	6.49867
17.79	6.47762
17.8	6.47598
17.81	6.47894
17.82	6.47795
17.83	6.50756
17.84	6.46907
17.85	6.47499
17.86	6.474
17.87	6.46051
17.88	6.44736
17.89	6.44012
17.9	6.44867
17.91	6.49144
17.92	6.41446
17.93	6.45229
17.94	6.45887
17.95	6.48288
17.96	6.47334
17.97	6.47663
17.98	6.45986
17.99	6.39604
18	6.43913
18.01	6.48552
18.02	6.49473
18.03	6.44933
18.04	6.46315
18.05	6.48749
18.06	6.42762
18.07	6.47071
18.08	6.4615
18.09	6.42038
18.1	6.41643
18.11	6.47696
18.12	6.49111
18.13	6.44505
18.14	6.45032
18.15	6.45361
18.16	6.46545
18.17	6.48848
18.18	6.52762
18.19	6.46578
18.2	6.50788
18.21	6.50624
18.22	6.48025
18.23	6.51348
18.24	6.48288
18.25	6.42894
18.26	6.50723
18.27	6.47927
18.28	6.45065
18.29	6.48486
18.3	6.42729
18.31	6.44045
18.32	6.4592
18.33	6.43782
18.34	6.45394
18.35	6.44867
18.36	6.45723
18.37	6.44604
18.38	6.4092
18.39	6.4388
18.4	6.45723
18.41	6.39374
18.42	6.4342
18.43	6.51117
18.44	6.45887
18.45	6.42137
18.46	6.42992
18.47	6.45492
18.48	6.48025
18.49	6.44867
18.5	6.47663
18.51	6.4444
18.52	6.4388
18.53	6.46216
18.54	6.51775
18.55	6.45163
18.56	6.47104
18.57	6.44867
18.58	6.45065
18.59	6.42466
18.6	6.4694
18.61	6.45788
18.62	6.45098
18.63	6.50953
18.64	6.50887
18.65	6.51775
18.66	6.49473
18.67	6.48617
18.68	6.43091
18.69	6.45854
18.7	6.47203
18.71	6.44209
18.72	6.44407
18.73	6.49209
18.74	6.44473
18.75	6.46611
18.76	6.48848
18.77	6.45591
18.78	6.51512
18.79	6.45525
18.8	6.42433
18.81	6.42926
18.82	6.44933
18.83	6.43157
18.84	6.44769
18.85	6.48782
18.86	6.46315
18.87	6.44473
18.88	6.46742
18.89	6.4944
18.9	6.46117
18.91	6.44176
18.92	6.43913
18.93	6.4319
18.94	6.39439
18.95	6.4819
18.96	6.46315
18.97	6.48617
18.98	6.48782
18.99	6.47005
19	6.44045
19.01	6.51479
19.02	6.45163
19.03	6.4569
19.04	6.44275
19.05	6.41051
19.06	6.44801
19.07	6.44933
19.08	6.48552
19.09	6.4615
19.1	6.50361
19.11	6.42268
19.12	6.40426
19.13	6.44834
19.14	6.43617
19.15	6.45887
19.16	6.46742
19.17	6.45426
19.18	6.49209
19.19	6.49637
19.2	6.44801
19.21	6.43091
19.22	6.43058
19.23	6.41413
19.24	6.43025
19.25	6.50788
19.26	6.47236
19.27	6.48519
19.28	6.47433
19.29	6.44834
19.3	6.44933
19.31	6.44933
19.32	6.44111
19.33	6.45953
19.34	6.48749
19.35	6.45887
19.36	6.43617
19.37	6.45755
19.38	6.47499
19.39	6.44933
19.4	6.42894
19.41	6.44867
19.42	6.45163
19.43	6.43288
19.44	6.42499
19.45	6.47038
19.46	6.46808
19.47	6.47927
19.48	6.46479
19.49	6.43584
19.5	6.43255
19.51	6.45657
19.52	6.47861
19.53	6.46249
19.54	6.47104
19.55	6.39933
19.56	6.44703
19.57	6.48979
19.58	6.47367
19.59	6.45953
19.6	6.44012
19.61	6.43979
19.62	6.39538
19.63	6.47927
19.64	6.48913
19.65	6.44703
19.66	6.47071
19.67	6.48256
19.68	6.49571
19.69	6.44078
19.7	6.45657
19.71	6.45854
19.72	6.43157
19.73	6.46479
19.74	6.42433
19.75	6.44801
19.76	6.45065
19.77	6.46973
19.78	6.45065
19.79	6.48946
19.8	6.5069
19.81	6.46611
19.82	6.50854
19.83	6.49275
19.84	6.48058
19.85	6.43749
19.86	6.43716
19.87	6.41446
19.88	6.3786
19.89	6.42795
19.9	6.45854
19.91	6.41315
19.92	6.4319
19.93	6.42894
19.94	6.47927
19.95	6.50525
19.96	6.39933
19.97	6.47795
19.98	6.45361
19.99	6.424
20	6.41643
20.01	6.37992
20.02	6.4319
20.03	6.48782
20.04	6.50131
20.05	6.43683
20.06	6.38222
20.07	6.44966
20.08	6.42959
20.09	6.45986
20.1	6.41907
20.11	6.45065
20.12	6.46677
20.13	6.49703
20.14	6.46841
20.15	6.42565
20.16	6.4263
20.17	6.44012
20.18	6.41643
20.19	6.43815
20.2	6.4694
20.21	6.41611
20.22	6.46479
20.23	6.45229
20.24	6.49637
20.25	6.45558
20.26	6.40229
20.27	6.43288
20.28	6.43519
20.29	6.37762
20.3	6.41676
20.31	6.41347
20.32	6.39801
20.33	6.48025
20.34	6.39801
20.35	6.41709
20.36	6.46019
20.37	6.39834
20.38	6.45459
20.39	6.42795
20.4	6.47005
20.41	6.42597
20.42	6.41051
20.43	6.42334
20.44	6.42894
20.45	6.37696
20.46	6.40196
20.47	6.41084
20.48	6.45361
20.49	6.45032
20.5	6.42729
20.51	6.37005
20.52	6.49144
20.53	6.45394
20.54	6.46775
20.55	6.44703
20.56	6.43058
20.57	6.39999
20.58	6.40854
20.59	6.44999
20.6	6.48288
20.61	6.45065
20.62	6.41808
20.63	6.45163
20.64	6.44637
20.65	6.40262
20.66	6.38749
20.67	6.40986
20.68	6.36808
20.69	6.39867
20.7	6.41611
20.71	6.44736
20.72	6.37992
20.73	6.41808
20.74	6.42137
20.75	6.44703
20.76	6.45163
20.77	6.4467
20.78	6.42597
20.79	6.449
20.8	6.44308
20.81	6.44999
20.82	6.41413
20.83	6.41611
20.84	6.3865
20.85	6.38288
20.86	6.46677
20.87	6.4138
20.88	6.3717
20.89	6.42565
20.9	6.42894
20.91	6.44045
20.92	6.40591
20.93	6.41084
20.94	6.38387
20.95	6.4319
20.96	6.47334
20.97	6.43749
20.98	6.41709
20.99	6.41413
21	6.45492
21.01	6.45657
21.02	6.4138
21.03	6.38716
21.04	6.37104
21.05	6.45196
21.06	6.43354
21.07	6.42597
21.08	6.47663
21.09	6.43946
21.1	6.41216
21.11	6.4069
21.12	6.3717
21.13	6.42005
21.14	6.40064
21.15	6.399
21.16	6.40064
21.17	6.40393
21.18	6.39637
21.19	6.374
21.2	6.4365
21.21	6.41315
21.22	6.43255
21.23	6.43782
21.24	6.41676
21.25	6.40854
21.26	6.41479
21.27	6.39999
21.28	6.37499
21.29	6.45163
21.3	6.449
21.31	6.40295
21.32	6.45986
21.33	6.4092
21.34	6.42334
21.35	6.37203
21.36	6.4217
21.37	6.44209
21.38	6.44176
21.39	6.43913
21.4	6.41643
21.41	6.42236
21.42	6.37828
21.43	6.35393
21.44	6.35591
21.45	6.45986
21.46	6.45098
21.47	6.42861
21.48	6.38255
21.49	6.43946
21.5	6.44834
21.51	6.42236
21.52	6.42071
21.53	6.46249
21.54	6.42499
21.55	6.38387
21.56	6.38387
21.57	6.38782
21.58	6.3592
21.59	6.37532
21.6	6.37729
21.61	6.39374
21.62	6.41841
21.63	6.4115
21.64	6.40953
21.65	6.3717
21.66	6.41413
21.67	6.38025
21.68	6.40393
21.69	6.43913
21.7	6.38518
21.71	6.37959
21.72	6.40657
21.73	6.4069
21.74	6.3967
21.75	6.4217
21.76	6.39604
21.77	6.38157
21.78	6.38157
21.79	6.37104
21.8	6.41084
21.81	6.38551
21.82	6.37795
21.83	6.42828
21.84	6.42071
21.85	6.39275
21.86	6.399
21.87	6.45196
21.88	6.36413
21.89	6.38617
21.9	6.42894
21.91	6.449
21.92	6.41413
21.93	6.40591
21.94	6.39768
21.95	6.36183
21.96	6.40064
21.97	6.41611
21.98	6.38124
21.99	6.44769
22	6.40755
22.01	6.40854
22.02	6.40558
22.03	6.41742
22.04	6.45755
22.05	6.42071
22.06	6.40788
22.07	6.43058
22.08	6.4069
22.09	6.35656
22.1	6.4444
22.11	6.41249
22.12	6.39111
22.13	6.44407
22.14	6.42894
22.15	6.42433
22.16	6.39637
22.17	6.41315
22.18	6.39275
22.19	6.38617
22.2	6.4092
22.21	6.38979
22.22	6.40295
22.23	6.43913
22.24	6.43321
22.25	6.39538
22.26	6.39078
22.27	6.37466
22.28	6.43222
22.29	6.38847
22.3	6.39045
22.31	6.39867
22.32	6.37466
22.33	6.3786
22.34	6.44933
22.35	6.42334
22.36	6.4444
22.37	6.41446
22.38	6.44966
22.39	6.38354
22.4	6.36841
22.41	6.38058
22.42	6.38683
22.43	6.37597
22.44	6.44111
22.45	6.41446
22.46	6.38617
22.47	6.36216
22.48	6.39341
22.49	6.43157
22.5	6.41347
22.51	6.45196
22.52	6.4592
22.53	6.39933
22.54	6.4365
22.55	6.43058
22.56	6.4217
22.57	6.424
22.58	6.40755
22.59	6.45558
22.6	6.43058
22.61	6.39867
22.62	6.39275
22.63	6.41676
22.64	6.44703
22.65	6.38847
22.66	6.38058
22.67	6.41545
22.68	6.3967
22.69	6.40657
22.7	6.36972
22.71	6.38979
22.72	6.36775
22.73	6.39768
22.74	6.39209
22.75	6.37235
22.76	6.37005
22.77	6.39341
22.78	6.41676
22.79	6.39867
22.8	6.38782
22.81	6.40953
22.82	6.39045
22.83	6.41874
22.84	6.39209
22.85	6.41446
22.86	6.38485
22.87	6.38387
22.88	6.39012
22.89	6.40032
22.9	6.39275
22.91	6.35196
22.92	6.37466
22.93	6.37334
22.94	6.39736
22.95	6.38847
22.96	6.38058
22.97	6.45262
22.98	6.39472
22.99	6.3967
23	6.38814
23.01	6.37466
23.02	6.38255
23.03	6.37433
23.04	6.40788
23.05	6.42828
23.06	6.3967
23.07	6.40657
23.08	6.34702
23.09	6.38551
23.1	6.38354
23.11	6.34702
23.12	6.40887
23.13	6.33683
23.14	6.36347
23.15	6.4092
23.16	6.39045
23.17	6.41084
23.18	6.36709
23.19	6.37367
23.2	6.40459
23.21	6.40064
23.22	6.42926
23.23	6.43551
23.24	6.39966
23.25	6.32104
23.26	6.38814
23.27	6.35887
23.28	6.36742
23.29	6.42729
23.3	6.42959
23.31	6.42729
23.32	6.38091
23.33	6.39834
23.34	6.40591
23.35	6.42729
23.36	6.33387
23.37	6.39374
23.38	6.39308
23.39	6.40821
23.4	6.43453
23.41	6.36676
23.42	6.40032
23.43	6.37729
23.44	6.36479
23.45	6.39275
23.46	6.39571
23.47	6.40591
23.48	6.3717
23.49	6.39637
23.5	6.38058
23.51	6.349
23.52	6.40722
23.53	6.46019
23.54	6.37466
23.55	6.43321
23.56	6.41742
23.57	6.40361
23.58	6.36249
23.59	6.36446
23.6	6.40328
23.61	6.33716
23.62	6.37038
23.63	6.43387
23.64	6.41775
23.65	6.374
23.66	6.40459
23.67	6.38979
23.68	6.38453
23.69	6.38716
23.7	6.34801
23.71	6.34045
23.72	6.39209
23.73	6.36972
23.74	6.37762
23.75	6.37433
23.76	6.40295
23.77	6.41413
23.78	6.36841
23.79	6.4013
23.8	6.35656
23.81	6.35591
23.82	6.37762
23.83	6.36939
23.84	6.41446
23.85	6.35591
23.86	6.37597
23.87	6.39012
23.88	6.40229
23.89	6.36808
23.9	6.424
23.91	6.43519
23.92	6.4263
23.93	6.44867
23.94	6.38058
23.95	6.41643
23.96	6.34308
23.97	6.42038
23.98	6.37203
23.99	6.36314
24	6.36874
24.01	6.39933
24.02	6.37367
24.03	6.3592
24.04	6.43157
24.05	6.41841
24.06	6.35295
24.07	6.37071
24.08	6.34933
24.09	6.37597
24.1	6.37992
24.11	6.38979
24.12	6.39407
24.13	6.3967
24.14	6.4092
24.15	6.39143
24.16	6.43617
24.17	6.40953
24.18	6.36972
24.19	6.34571
24.2	6.32466
24.21	6.40788
24.22	6.40755
24.23	6.37005
24.24	6.38255
24.25	6.35163
24.26	6.39801
24.27	6.34176
24.28	6.40986
24.29	6.41676
24.3	6.39933
24.31	6.43782
24.32	6.41117
24.33	6.40361
24.34	6.42828
24.35	6.38683
24.36	6.40558
24.37	6.34604
24.38	6.39341
24.39	6.41709
24.4	6.39407
24.41	6.36643
24.42	6.3263
24.43	6.35689
24.44	6.4138
24.45	6.43321
24.46	6.39703
24.47	6.31643
24.48	6.35656
24.49	6.38518
24.5	6.37301
24.51	6.37762
24.52	6.39571
24.53	6.36972
24.54	6.37597
24.55	6.39275
24.56	6.38518
24.57	6.399
24.58	6.36446
24.59	6.33814
24.6	6.37564
24.61	6.38321
24.62	6.41676
24.63	6.4013
24.64	6.42959
24.65	6.44473
24.66	6.43683
24.67	6.36742
24.68	6.40854
24.69	6.4342
24.7	6.4115
24.71	6.38091
24.72	6.3763
24.73	6.37268
24.74	6.37795
24.75	6.40558
24.76	6.36117
24.77	6.41216
24.78	6.40788
24.79	6.42268
24.8	6.40361
24.81	6.34406
24.82	6.35821
24.83	6.39407
24.84	6.38255
24.85	6.41709
24.86	6.36314
24.87	6.33584
24.88	6.35525
24.89	6.38321
24.9	6.3967
24.91	6.37696
24.92	6.33354
24.93	6.34242
24.94	6.40525
24.95	6.42565
24.96	6.39407
24.97	6.39439
24.98	6.36117
24.99	6.33025
25	6.31972
25.01	6.35393
25.02	6.41808
25.03	6.374
25.04	6.36314
25.05	6.4194
25.06	6.38782
25.07	6.38387
25.08	6.3865
25.09	6.39768
25.1	6.3842
25.11	6.3717
25.12	6.3786
25.13	6.33617
25.14	6.36808
25.15	6.36347
25.16	6.41347
25.17	6.40163
25.18	6.38321
25.19	6.39078
25.2	6.38091
25.21	6.36018
25.22	6.37696
25.23	6.3967
25.24	6.40229
25.25	6.43222
25.26	6.35163
25.27	6.41446
25.28	6.44242
25.29	6.38485
25.3	6.36742
25.31	6.41018
25.32	6.38617
25.33	6.3467
25.34	6.35887
25.35	6.39275
25.36	6.43255
25.37	6.36939
25.38	6.36512
25.39	6.36972
25.4	6.31446
25.41	6.39703
25.42	6.43683
25.43	6.38518
25.44	6.37663
25.45	6.41874
25.46	6.39801
25.47	6.37466
25.48	6.40459
25.49	6.40657
25.5	6.40854
25.51	6.37038
25.52	6.3967
25.53	6.40459
25.54	6.38847
25.55	6.34801
25.56	6.34538
25.57	6.40854
25.58	6.35689
25.59	6.38946
25.6	6.40755
25.61	6.32959
25.62	6.35196
25.63	6.39966
25.64	6.38847
25.65	6.39078
25.66	6.35558
25.67	6.36281
25.68	6.36314
25.69	6.35854
25.7	6.34867
25.71	6.35985
25.72	6.35854
25.73	6.35821
25.74	6.37301
25.75	6.34275
25.76	6.34735
25.77	6.3217
25.78	6.3536
25.79	6.40986
25.8	6.37663
25.81	6.3263
25.82	6.37137
25.83	6.36281
25.84	6.36972
25.85	6.40591
25.86	6.36281
25.87	6.3411
25.88	6.36314
25.89	6.39472
25.9	6.36183
25.91	6.39538
25.92	6.34341
25.93	6.37762
25.94	6.33847
25.95	6.35328
25.96	6.34209
25.97	6.3638
25.98	6.324
25.99	6.32795
26	6.41775
26.01	6.34735
26.02	6.3763
26.03	6.37466
26.04	6.37203
26.05	6.33485
26.06	6.31512
26.07	6.37367
26.08	6.34801
26.09	6.35854
26.1	6.35887
26.11	6.36281
26.12	6.38288
26.13	6.37926
26.14	6.35558
26.15	6.39801
26.16	6.36874
26.17	6.36643
26.18	6.37203
26.19	6.31216
26.2	6.32795
26.21	6.3661
26.22	6.34834
26.23	6.30525
26.24	6.37137
26.25	6.31742
26.26	6.36643
26.27	6.37926
26.28	6.33946
26.29	6.33222
26.3	6.36742
26.31	6.38255
26.32	6.4069
26.33	6.36446
26.34	6.34735
26.35	6.374
26.36	6.32005
26.37	6.32202
26.38	6.31084
26.39	6.35393
26.4	6.35591
26.41	6.3615
26.42	6.36479
26.43	6.36578
26.44	6.39242
26.45	6.37301
26.46	6.36676
26.47	6.40032
26.48	6.36907
26.49	6.37301
26.5	6.34505
26.51	6.37532
26.52	6.37499
26.53	6.34702
26.54	6.40986
26.55	6.374
26.56	6.39341
26.57	6.32433
26.58	6.32038
26.59	6.3263
26.6	6.36709
26.61	6.38189
26.62	6.39275
26.63	6.33124
26.64	6.37795
26.65	6.36413
26.66	6.40032
26.67	6.39045
26.68	6.40887
26.69	6.38913
26.7	6.37104
26.71	6.34966
26.72	6.33683
26.73	6.34604
26.74	6.37137
26.75	6.34801
26.76	6.42499
26.77	6.39111
26.78	6.36117
26.79	6.39966
26.8	6.39341
26.81	6.42236
26.82	6.34933
26.83	6.38058
26.84	6.42071
26.85	6.37301
26.86	6.42071
26.87	6.44834
26.88	6.38716
26.89	6.34209
26.9	6.3661
26.91	6.36775
26.92	6.3763
26.93	6.42367
26.94	6.39045
26.95	6.30064
26.96	6.29341
26.97	6.35887
26.98	6.37564
26.99	6.37828
27	6.35064
27.01	6.3717
27.02	6.31446
27.03	6.33683
27.04	6.37959
27.05	6.39703
27.06	6.34242
27.07	6.3638
27.08	6.34637
27.09	6.36742
27.1	6.374
27.11	6.35393
27.12	6.36018
27.13	6.34341
27.14	6.36084
27.15	6.39078
27.16	6.3786
27.17	6.35525
27.18	6.41874
27.19	6.41775
27.2	6.37268
27.21	6.35426
27.22	6.39637
27.23	6.37597
27.24	6.35459
27.25	6.36775
27.26	6.34045
27.27	6.27959
27.28	6.35097
27.29	6.34933
27.3	6.3467
27.31	6.31643
27.32	6.32301
27.33	6.33781
27.34	6.35459
27.35	6.4092
27.36	6.34801
27.37	6.37433
27.38	6.36676
27.39	6.34012
27.4	6.39111
27.41	6.41216
27.42	6.35229
27.43	6.34505
27.44	6.38124
27.45	6.40393
27.46	6.38189
27.47	6.35985
27.48	6.34735
27.49	6.349
27.5	6.33189
27.51	6.3263
27.52	6.33716
27.53	6.37334
27.54	6.30196
27.55	6.3115
27.56	6.35064
27.57	6.36051
27.58	6.37038
27.59	6.37992
27.6	6.40591
27.61	6.324
27.62	6.34012
27.63	6.34999
27.64	6.36051
27.65	6.38222
27.66	6.39933
27.67	6.36051
27.68	6.35722
27.69	6.3763
27.7	6.35854
27.71	6.33255
27.72	6.32433
27.73	6.36413
27.74	6.39505
27.75	6.32893
27.76	6.37926
27.77	6.34077
27.78	6.34439
27.79	6.32071
27.8	6.30558
27.81	6.32663
27.82	6.34801
27.83	6.37433
27.84	6.35295
27.85	6.31939
27.86	6.3536
27.87	6.32893
27.88	6.34045
27.89	6.36281
27.9	6.37301
27.91	6.38749
27.92	6.37038
27.93	6.36216
27.94	6.35196
27.95	6.39571
27.96	6.41183
27.97	6.35788
27.98	6.35459
27.99	6.35985
28	6.36972
28.01	6.36545
28.02	6.37367
28.03	6.34933
28.04	6.324
28.05	6.35656
28.06	6.33749
28.07	6.33716
28.08	6.32367
28.09	6.3786
28.1	6.38189
28.11	6.38814
28.12	6.36051
28.13	6.36117
28.14	6.32005
28.15	6.34801
28.16	6.33814
28.17	6.33551
28.18	6.39045
28.19	6.33156
28.2	6.35656
28.21	6.35163
28.22	6.35097
28.23	6.31972
28.24	6.36907
28.25	6.31117
28.26	6.34077
28.27	6.41249
28.28	6.3161
28.29	6.36676
28.3	6.34176
28.31	6.3467
28.32	6.31742
28.33	6.34143
28.34	6.36578
28.35	6.35656
28.36	6.36578
28.37	6.34209
28.38	6.36709
28.39	6.37992
28.4	6.36578
28.41	6.36183
28.42	6.36512
28.43	6.3388
28.44	6.3763
28.45	6.33946
28.46	6.30327
28.47	6.36742
28.48	6.37104
28.49	6.38979
28.5	6.32268
28.51	6.37071
28.52	6.36183
28.53	6.34571
28.54	6.34472
28.55	6.299
28.56	6.349
28.57	6.39143
28.58	6.35163
28.59	6.37893
28.6	6.36907
28.61	6.35031
28.62	6.34045
28.63	6.31676
28.64	6.29966
28.65	6.349
28.66	6.34735
28.67	6.3342
28.68	6.36775
28.69	6.32663
28.7	6.38255
28.71	6.38782
28.72	6.36578
28.73	6.36347
28.74	6.35985
28.75	6.32795
28.76	6.31906
28.77	6.31873
28.78	6.33452
28.79	6.29966
28.8	6.3138
28.81	6.35755
28.82	6.34406
28.83	6.31906
28.84	6.34966
28.85	6.29604
28.86	6.32071
28.87	6.34999
28.88	6.33913
28.89	6.28551
28.9	6.29637
28.91	6.35393
28.92	6.36578
28.93	6.35722
28.94	6.33683
28.95	6.3217
28.96	6.35887
28.97	6.35558
28.98	6.36874
28.99	6.34834
29	6.38617
29.01	6.36117
29.02	6.34077
29.03	6.31873
29.04	6.34176
29.05	6.27893
29.06	6.28946
29.07	6.32827
29.08	6.34275
29.09	6.36939
29.1	6.32301
29.11	6.31051
29.12	6.34308
29.13	6.3661
29.14	6.29406
29.15	6.32663
29.16	6.35722
29.17	6.38091
29.18	6.35689
29.19	6.28617
29.2	6.37828
29.21	6.34242
29.22	6.34012
29.23	6.36216
29.24	6.30656
29.25	6.3513
29.26	6.34439
29.27	6.33025
29.28	6.37268
29.29	6.36643
29.3	6.35064
29.31	6.36183
29.32	6.32334
29.33	6.36051
29.34	6.34867
29.35	6.32827
29.36	6.35788
29.37	6.36314
29.38	6.35229
29.39	6.34275
29.4	6.38124
29.41	6.29505
29.42	6.31117
29.43	6.33584
29.44	6.34571
29.45	6.35031
29.46	6.3388
29.47	6.34735
29.48	6.38124
29.49	6.31972
29.5	6.32564
29.51	6.34801
29.52	6.34406
29.53	6.35426
29.54	6.32433
29.55	6.37663
29.56	6.40722
29.57	6.35591
29.58	6.36183
29.59	6.32038
29.6	6.31018
29.61	6.35953
29.62	6.38485
29.63	6.34571
29.64	6.34801
29.65	6.31479
29.66	6.33288
29.67	6.33749
29.68	6.37564
29.69	6.36413
29.7	6.37203
29.71	6.35887
29.72	6.34308
29.73	6.33946
29.74	6.33255
29.75	6.32433
29.76	6.34999
29.77	6.34966
29.78	6.39209
29.79	6.38157
29.8	6.35262
29.81	6.36084
29.82	6.32005
29.83	6.39472
29.84	6.34341
29.85	6.34538
29.86	6.35163
29.87	6.39604
29.88	6.36249
29.89	6.34308
29.9	6.36051
29.91	6.37005
29.92	6.35624
29.93	6.37071
29.94	6.37104
29.95	6.34209
29.96	6.3342
29.97	6.29143
29.98	6.29143
29.99	6.36643
30	6.37301
30.01	6.31906
30.02	6.34966
30.03	6.34012
30.04	6.3411
30.05	6.39209
30.06	6.34012
30.07	6.3638
30.08	6.32531
30.09	6.35262
30.1	6.34933
30.11	6.31873
30.12	6.33288
30.13	6.35393
30.14	6.37137
30.15	6.33946
30.16	6.2911
30.17	6.36775
30.18	6.374
30.19	6.35953
30.2	6.29275
30.21	6.33518
30.22	6.349
30.23	6.34702
30.24	6.32268
30.25	6.31512
30.26	6.33518
30.27	6.33814
30.28	6.35985
30.29	6.39637
30.3	6.37203
30.31	6.37795
30.32	6.34045
30.33	6.32762
30.34	6.33749
30.35	6.36084
30.36	6.38453
30.37	6.38354
30.38	6.31479
30.39	6.32762
30.4	6.3467
30.41	6.3763
30.42	6.34209
30.43	6.33617
30.44	6.38551
30.45	6.35328
30.46	6.40328
30.47	6.38157
30.48	6.3536
30.49	6.41084
30.5	6.37268
30.51	6.38288
30.52	6.38354
30.53	6.36183
30.54	6.38617
30.55	6.29242
30.56	6.28584
30.57	6.34439
30.58	6.35064
30.59	6.34275
30.6	6.32729
30.61	6.37334
30.62	6.32959
30.63	6.32367
30.64	6.33518
30.65	6.39374
30.66	6.41347
30.67	6.37235
30.68	6.38255
30.69	6.324
30.7	6.30656
30.71	6.34472
30.72	6.31808
30.73	6.35492
30.74	6.36578
30.75	6.35459
30.76	6.38222
30.77	6.37893
30.78	6.30952
30.79	6.39308
30.8	6.36249
30.81	6.34406
30.82	6.32466
30.83	6.34242
30.84	6.38222
30.85	6.35985
30.86	6.37959
30.87	6.38255
30.88	6.35229
30.89	6.36939
30.9	6.33749
30.91	6.34439
30.92	6.34308
30.93	6.33518
30.94	6.33946
30.95	6.37532
30.96	6.31972
30.97	6.3513
30.98	6.32696
30.99	6.31972
31	6.38189
31.01	6.35558
31.02	6.32498
31.03	6.3365
31.04	6.36314
31.05	6.34834
31.06	6.35887
31.07	6.34209
31.08	6.36545
31.09	6.34439
31.1	6.31479
31.11	6.30623
31.12	6.3342
31.13	6.35689
31.14	6.29439
31.15	6.35525
31.16	6.36775
31.17	6.31709
31.18	6.3388
31.19	6.29801
31.2	6.28913
31.21	6.31084
31.22	6.349
31.23	6.32268
31.24	6.34176
31.25	6.35722
31.26	6.38124
31.27	6.33058
31.28	6.30558
31.29	6.40262
31.3	6.40064
31.31	6.37433
31.32	6.34077
31.33	6.30031
31.34	6.29735
31.35	6.32893
31.36	6.34637
31.37	6.32104
31.38	6.29637
31.39	6.31676
31.4	6.38025
31.41	6.34308
31.42	6.33584
31.43	6.35426
31.44	6.31972
31.45	6.34308
31.46	6.31873
31.47	6.30426
31.48	6.32104
31.49	6.31775
31.5	6.29702
31.51	6.30985
31.52	6.29669
31.53	6.3263
31.54	6.35887
31.55	6.34012
31.56	6.28189
31.57	6.33847
31.58	6.3217
31.59	6.32531
31.6	6.3388
31.61	6.33781
31.62	6.37071
31.63	6.34571
31.64	6.36216
31.65	6.35459
31.66	6.31841
31.67	6.35393
31.68	6.34768
31.69	6.31413
31.7	6.33913
31.71	6.35163
31.72	6.32597
31.73	6.3286
31.74	6.30196
31.75	6.35459
31.76	6.29242
31.77	6.35229
31.78	6.32005
31.79	6.33189
31.8	6.3615
31.81	6.31841
31.82	6.34242
31.83	6.29867
31.84	6.26873
31.85	6.31545
31.86	6.29242
31.87	6.29341
31.88	6.36578
31.89	6.35426
31.9	6.34341
31.91	6.3263
31.92	6.36742
31.93	6.29406
31.94	6.3217
31.95	6.29044
31.96	6.33485
31.97	6.35492
31.98	6.32268
31.99	6.3467
32	6.37532
32.01	6.32926
32.02	6.35656
32.03	6.38387
32.04	6.39867
32.05	6.35788
32.06	6.31347
32.07	6.35426
32.08	6.31183
32.09	6.33716
32.1	6.324
32.11	6.29472
32.12	6.33584
32.13	6.32959
32.14	6.34209
32.15	6.34505
32.16	6.3286
32.17	6.29472
32.18	6.35262
32.19	6.33683
32.2	6.35985
32.21	6.36676
32.22	6.38814
32.23	6.33255
32.24	6.32334
32.25	6.3217
32.26	6.32597
32.27	6.35031
32.28	6.28913
32.29	6.3411
32.3	6.37499
32.31	6.36347
32.32	6.34538
32.33	6.34505
32.34	6.30821
32.35	6.33354
32.36	6.32498
32.37	6.34209
32.38	6.31545
32.39	6.3217
32.4	6.3036
32.41	6.31972
32.42	6.33979
32.43	6.37071
32.44	6.36643
32.45	6.36545
32.46	6.3138
32.47	6.29998
32.48	6.3286
32.49	6.31084
32.5	6.3115
32.51	6.31479
32.52	6.34176
32.53	6.3615
32.54	6.33124
32.55	6.30558
32.56	6.30821
32.57	6.32597
32.58	6.33058
32.59	6.34933
32.6	6.33814
32.61	6.33485
32.62	6.33551
32.63	6.32202
32.64	6.32038
32.65	6.31347
32.66	6.31643
32.67	6.34834
32.68	6.34472
32.69	6.31545
32.7	6.34242
32.71	6.30689
32.72	6.38091
32.73	6.3217
32.74	6.34341
32.75	6.41512
32.76	6.36314
32.77	6.38782
32.78	6.36018
32.79	6.37926
32.8	6.38913
32.81	6.30393
32.82	6.34341
32.83	6.34077
32.84	6.34341
32.85	6.31545
32.86	6.34571
32.87	6.34045
32.88	6.324
32.89	6.37367
32.9	6.37137
32.91	6.33617
32.92	6.27564
32.93	6.35624
32.94	6.33584
32.95	6.28123
32.96	6.28913
32.97	6.30426
32.98	6.34571
32.99	6.35031
33	6.42104
33.01	6.29406
33.02	6.30887
33.03	6.29439
33.04	6.35624
33.05	6.33716
33.06	6.33288
33.07	6.35624
33.08	6.38683
33.09	6.35097
33.1	6.38782
33.11	6.33617
33.12	6.35262
33.13	6.3263
33.14	6.31512
33.15	6.34834
33.16	6.32926
33.17	6.28189
33.18	6.324
33.19	6.35393
33.2	6.30459
33.21	6.32202
33.22	6.32268
33.23	6.29472
33.24	6.3411
33.25	6.32729
33.26	6.33716
33.27	6.39604
33.28	6.33946
33.29	6.35854
33.3	6.35229
33.31	6.2911
33.32	6.29834
33.33	6.30854
33.34	6.28781
33.35	6.31676
33.36	6.32367
33.37	6.3513
33.38	6.35097
33.39	6.36084
33.4	6.3513
33.41	6.32531
33.42	6.32663
33.43	6.30426
33.44	6.3263
33.45	6.31545
33.46	6.32564
33.47	6.33584
33.48	6.36314
33.49	6.31709
33.5	6.31281
33.51	6.35031
33.52	6.35459
33.53	6.33584
33.54	6.33189
33.55	6.29472
33.56	6.33814
33.57	6.33025
33.58	6.30755
33.59	6.3467
33.6	6.35755
33.61	6.34209
33.62	6.31972
33.63	6.31051
33.64	6.29308
33.65	6.30623
33.66	6.35163
33.67	6.3592
33.68	6.37235
33.69	6.35788
33.7	6.33683
33.71	6.32696
33.72	6.34045
33.73	6.32564
33.74	6.33716
33.75	6.30064
33.76	6.33781
33.77	6.34077
33.78	6.3842
33.79	6.36117
33.8	6.34176
33.81	6.35624
33.82	6.33781
33.83	6.34505
33.84	6.31709
33.85	6.34143
33.86	6.31248
33.87	6.32729
33.88	6.35821
33.89	6.29439
33.9	6.25854
33.91	6.31841
33.92	6.34571
33.93	6.2911
33.94	6.28979
33.95	6.3036
33.96	6.35953
33.97	6.39571
33.98	6.30919
33.99	6.30854
34	6.35163
34.01	6.28551
34.02	6.32729
34.03	6.29702
34.04	6.31841
34.05	6.27169
34.06	6.28617
34.07	6.29209
34.08	6.28781
34.09	6.31972
34.1	6.36676
34.11	6.31676
34.12	6.32334
34.13	6.31676
34.14	6.37828
34.15	6.3842
34.16	6.35525
34.17	6.32301
34.18	6.30492
34.19	6.30985
34.2	6.28058
34.21	6.2661
34.22	6.31545
34.23	6.33913
34.24	6.30393
34.25	6.33354
34.26	6.26906
34.27	6.32334
34.28	6.30854
34.29	6.31676
34.3	6.34571
34.31	6.33617
34.32	6.34308
34.33	6.30623
34.34	6.29834
34.35	6.33584
34.36	6.35624
34.37	6.32104
34.38	6.33091
34.39	6.35229
34.4	6.31906
34.41	6.38157
34.42	6.36281
34.43	6.349
34.44	6.32235
34.45	6.28156
34.46	6.32564
34.47	6.349
34.48	6.29406
34.49	6.2911
34.5	6.32498
34.51	6.36643
34.52	6.32795
34.53	6.35328
34.54	6.39703
34.55	6.34604
34.56	6.33156
34.57	6.28354
34.58	6.25788
34.59	6.28946
34.6	6.29933
34.61	6.32564
34.62	6.32729
34.63	6.31939
34.64	6.31413
34.65	6.35788
34.66	6.34242
34.67	6.31479
34.68	6.34637
34.69	6.33716
34.7	6.34209
34.71	6.29604
34.72	6.36676
34.73	6.30492
34.74	6.30229
34.75	6.30887
34.76	6.36775
34.77	6.35656
34.78	6.32301
34.79	6.31512
34.8	6.31906
34.81	6.31775
34.82	6.34472
34.83	6.35064
34.84	6.33485
34.85	6.29472
34.86	6.33058
34.87	6.30558
34.88	6.34045
34.89	6.36512
34.9	6.31018
34.91	6.32893
34.92	6.37992
34.93	6.32762
34.94	6.2615
34.95	6.33091
34.96	6.32498
34.97	6.3638
34.98	6.35492
34.99	6.34209
35	6.32433
35.01	6.32795
35.02	6.38551
35.03	6.35196
35.04	6.26183
35.05	6.29044
35.06	6.28156
35.07	6.31841
35.08	6.31479
35.09	6.3342
35.1	6.33124
35.11	6.32334
35.12	6.31347
35.13	6.33617
35.14	6.3411
35.15	6.35656
35.16	6.38683
35.17	6.36314
35.18	6.3763
35.19	6.38518
35.2	6.30163
35.21	6.34209
35.22	6.31446
35.23	6.24834
35.24	6.30821
35.25	6.30689
35.26	6.32301
35.27	6.32202
35.28	6.33255
35.29	6.33025
35.3	6.37663
35.31	6.34768
35.32	6.36742
35.33	6.2763
35.34	6.33189
35.35	6.35985
35.36	6.34571
35.37	6.33814
35.38	6.32663
35.39	6.33946
35.4	6.36018
35.41	6.32663
35.42	6.32005
35.43	6.31775
35.44	6.31479
35.45	6.29341
35.46	6.31906
35.47	6.37071
35.48	6.32926
35.49	6.32729
35.5	6.32334
35.51	6.31051
35.52	6.34012
35.53	6.29604
35.54	6.31314
35.55	6.32762
35.56	6.32597
35.57	6.33452
35.58	6.30821
35.59	6.31742
35.6	6.33124
35.61	6.32466
35.62	6.32795
35.63	6.32564
35.64	6.2865
35.65	6.2809
35.66	6.33288
35.67	6.29077
35.68	6.26709
35.69	6.31018
35.7	6.27268
35.71	6.29012
35.72	6.33749
35.73	6.31742
35.74	6.35031
35.75	6.30262
35.76	6.34275
35.77	6.26808
35.78	6.35821
35.79	6.32498
35.8	6.28156
35.81	6.34571
35.82	6.34275
35.83	6.34209
35.84	6.32893
35.85	6.36084
35.86	6.33485
35.87	6.3263
35.88	6.3013
35.89	6.3638
35.9	6.36117
35.91	6.34439
35.92	6.32531
35.93	6.35097
35.94	6.33683
35.95	6.33913
35.96	6.33387
35.97	6.31676
35.98	6.35459
35.99	6.34604
36	6.32827
36.01	6.30919
36.02	6.35788
36.03	6.33781
36.04	6.34012
36.05	6.31248
36.06	6.32926
36.07	6.32795
36.08	6.31643
36.09	6.34374
36.1	6.31248
36.11	6.30459
36.12	6.28551
36.13	6.31117
36.14	6.35591
36.15	6.31643
36.16	6.33222
36.17	6.33387
36.18	6.28156
36.19	6.34176
36.2	6.30722
36.21	6.29242
36.22	6.36084
36.23	6.28584
36.24	6.32334
36.25	6.31446
36.26	6.37466
36.27	6.34571
36.28	6.25755
36.29	6.30755
36.3	6.30887
36.31	6.28748
36.32	6.32498
36.33	6.28387
36.34	6.28847
36.35	6.32235
36.36	6.28123
36.37	6.31446
36.38	6.32696
36.39	6.31577
36.4	6.28781
36.41	6.31479
36.42	6.35953
36.43	6.35196
36.44	6.30393
36.45	6.3013
36.46	6.30459
36.47	6.33847
36.48	6.3161
36.49	6.29998
36.5	6.28222
36.51	6.31347
36.52	6.32038
36.53	6.30196
36.54	6.32334
36.55	6.29571
36.56	6.33222
36.57	6.349
36.58	6.33551
36.59	6.30656
36.6	6.31808
36.61	6.29077
36.62	6.31873
36.63	6.31676
36.64	6.29637
36.65	6.32367
36.66	6.28518
36.67	6.25821
36.68	6.31281
36.69	6.33354
36.7	6.32301
36.71	6.33156
36.72	6.33781
36.73	6.30393
36.74	6.34045
36.75	6.30919
36.76	6.29735
36.77	6.33189
36.78	6.33847
36.79	6.3286
36.8	6.3786
36.81	6.38847
36.82	6.30755
36.83	6.34801
36.84	6.34275
36.85	6.33058
36.86	6.32564
36.87	6.36117
36.88	6.30952
36.89	6.29242
36.9	6.34012
36.91	6.35163
36.92	6.4069
36.93	6.35393
36.94	6.29143
36.95	6.32531
36.96	6.34834
36.97	6.33584
36.98	6.29867
36.99	6.28748
37	6.34571
37.01	6.34439
37.02	6.28452
37.03	6.33683
37.04	6.34045
37.05	6.3263
37.06	6.29341
37.07	6.27827
37.08	6.31676
37.09	6.35163
37.1	6.3513
37.11	6.37203
37.12	6.33058
37.13	6.30623
37.14	6.30492
37.15	6.33321
37.16	6.31183
37.17	6.31512
37.18	6.3365
37.19	6.30294
37.2	6.32729
37.21	6.26215
37.22	6.33189
37.23	6.35097
37.24	6.30985
37.25	6.34735
37.26	6.28617
37.27	6.27531
37.28	6.32137
37.29	6.3342
37.3	6.30623
37.31	6.29341
37.32	6.3286
37.33	6.36117
37.34	6.32531
37.35	6.33749
37.36	6.31018
37.37	6.31577
37.38	6.35821
37.39	6.30887
37.4	6.27696
37.41	6.31281
37.42	6.31413
37.43	6.2911
37.44	6.32597
37.45	6.32235
37.46	6.30985
37.47	6.29373
37.48	6.2661
37.49	6.29834
37.5	6.2888
37.51	6.24571
37.52	6.30591
37.53	6.35426
37.54	6.31676
37.55	6.29044
37.56	6.26215
37.57	6.27433
37.58	6.28485
37.59	6.3161
37.6	6.31841
37.61	6.31775
37.62	6.3036
37.63	6.27531
37.64	6.30492
37.65	6.30887
37.66	6.32959
37.67	6.27268
37.68	6.26808
37.69	6.3161
37.7	6.29538
37.71	6.32795
37.72	6.27597
37.73	6.27005
37.74	6.29439
37.75	6.28979
37.76	6.29275
37.77	6.27762
37.78	6.28222
37.79	6.31906
37.8	6.30097
37.81	6.31413
37.82	6.30327
37.83	6.29406
37.84	6.36709
37.85	6.29998
37.86	6.32663
37.87	6.35064
37.88	6.33814
37.89	6.30854
37.9	6.29735
37.91	6.29439
37.92	6.31446
37.93	6.32104
37.94	6.34176
37.95	6.27038
37.96	6.28584
37.97	6.35689
37.98	6.30459
37.99	6.30031
38	6.28946
38.01	6.32597
38.02	6.34735
38.03	6.3592
38.04	6.32564
38.05	6.33683
38.06	6.33156
38.07	6.3115
38.08	6.30426
38.09	6.36117
38.1	6.27893
38.11	6.29308
38.12	6.34735
38.13	6.30525
38.14	6.30788
38.15	6.31709
38.16	6.32071
38.17	6.34012
38.18	6.32137
38.19	6.32795
38.2	6.31314
38.21	6.31676
38.22	6.30492
38.23	6.35558
38.24	6.28222
38.25	6.27794
38.26	6.26676
38.27	6.27663
38.28	6.31479
38.29	6.31939
38.3	6.34406
38.31	6.28584
38.32	6.33354
38.33	6.29505
38.34	6.35953
38.35	6.31906
38.36	6.30492
38.37	6.27104
38.38	6.28518
38.39	6.31577
38.4	6.35064
38.41	6.28354
38.42	6.34308
38.43	6.32926
38.44	6.32137
38.45	6.32301
38.46	6.29998
38.47	6.32597
38.48	6.32992
38.49	6.27597
38.5	6.31676
38.51	6.34439
38.52	6.30327
38.53	6.28617
38.54	6.32334
38.55	6.34077
38.56	6.28123
38.57	6.28419
38.58	6.32038
38.59	6.3036
38.6	6.30854
38.61	6.34012
38.62	6.30525
38.63	6.32531
38.64	6.324
38.65	6.32005
38.66	6.28123
38.67	6.33255
38.68	6.32696
38.69	6.31051
38.7	6.32498
38.71	6.34735
38.72	6.27367
38.73	6.28913
38.74	6.29308
38.75	6.29308
38.76	6.34604
38.77	6.31248
38.78	6.3217
38.79	6.29998
38.8	6.28452
38.81	6.30755
38.82	6.32959
38.83	6.31808
38.84	6.30064
38.85	6.34275
38.86	6.33847
38.87	6.30656
38.88	6.31216
38.89	6.3263
38.9	6.31775
38.91	6.28584
38.92	6.34341
38.93	6.33814
38.94	6.3615
38.95	6.35624
38.96	6.31643
38.97	6.32005
38.98	6.30097
38.99	6.3342
39	6.3342
39.01	6.30459
39.02	6.32005
39.03	6.32696
39.04	6.34143
39.05	6.31117
39.06	6.26873
39.07	6.27498
39.08	6.30919
39.09	6.32959
39.1	6.34604
39.11	6.33551
39.12	6.33716
39.13	6.29341
39.14	6.32729
39.15	6.33913
39.16	6.31808
39.17	6.30064
39.18	6.3388
39.19	6.27992
39.2	6.30755
39.21	6.30097
39.22	6.33255
39.23	6.33847
39.24	6.29571
39.25	6.25919
39.26	6.28814
39.27	6.31446
39.28	6.32893
39.29	6.32104
39.3	6.31281
39.31	6.27498
39.32	6.33979
39.33	6.30854
39.34	6.30558
39.35	6.34275
39.36	6.33749
39.37	6.28551
39.38	6.28748
39.39	6.33156
39.4	6.29604
39.41	6.31347
39.42	6.31545
39.43	6.35525
39.44	6.33683
39.45	6.34374
39.46	6.30656
39.47	6.31643
39.48	6.33354
39.49	6.27729
39.5	6.29242
39.51	6.27992
39.52	6.299
39.53	6.33124
39.54	6.324
39.55	6.35656
39.56	6.34341
39.57	6.3263
39.58	6.32992
39.59	6.2763
39.6	6.31446
39.61	6.24044
39.62	6.34538
39.63	6.28419
39.64	6.2661
39.65	6.29143
39.66	6.28354
39.67	6.31084
39.68	6.26347
39.69	6.32729
39.7	6.33979
39.71	6.3013
39.72	6.30722
39.73	6.27992
39.74	6.27959
39.75	6.31577
39.76	6.32564
39.77	6.33387
39.78	6.34604
39.79	6.33716
39.8	6.31183
39.81	6.32301
39.82	6.35064
39.83	6.33749
39.84	6.25952
39.85	6.28156
39.86	6.24735
39.87	6.29933
39.88	6.32235
39.89	6.27827
39.9	6.27959
39.91	6.35328
39.92	6.31873
39.93	6.34308
39.94	6.34012
39.95	6.32235
39.96	6.28387
39.97	6.28847
39.98	6.26117
39.99	6.23584
40	6.29373
40.01	6.28452
40.02	6.34637
40.03	6.3342
40.04	6.29044
40.05	6.28255
40.06	6.29176
40.07	6.29275
40.08	6.29702
40.09	6.36084
40.1	6.26873
40.11	6.31084
40.12	6.29341
40.13	6.23353
40.14	6.31643
40.15	6.27071
40.16	6.31248
40.17	6.30459
40.18	6.32531
40.19	6.33584
40.2	6.30196
40.21	6.31709
40.22	6.31643
40.23	6.30229
40.24	6.29998
40.25	6.32367
40.26	6.3138
40.27	6.34308
40.28	6.32005
40.29	6.33683
40.3	6.29834
40.31	6.26018
40.32	6.31281
40.33	6.29176
40.34	6.31676
40.35	6.33387
40.36	6.29505
40.37	6.32696
40.38	6.30689
40.39	6.30097
40.4	6.28123
40.41	6.26873
40.42	6.31841
40.43	6.31676
40.44	6.29538
40.45	6.30919
40.46	6.35328
40.47	6.3388
40.48	6.3286
40.49	6.31018
40.5	6.30327
40.51	6.29768
40.52	6.27827
40.53	6.27433
40.54	6.29505
40.55	6.31906
40.56	6.31216
40.57	6.28979
40.58	6.34538
40.59	6.3286
40.6	6.31446
40.61	6.33979
40.62	6.30327
40.63	6.31939
40.64	6.28518
40.65	6.30591
40.66	6.30031
40.67	6.28123
40.68	6.27104
40.69	6.30492
40.7	6.33847
40.71	6.34505
40.72	6.27367
40.73	6.27926
40.74	6.29275
40.75	6.2888
40.76	6.29077
40.77	6.32597
40.78	6.27729
40.79	6.31051
40.8	6.30064
40.81	6.32005
40.82	6.26873
40.83	6.32795
40.84	6.31709
40.85	6.23255
40.86	6.31709
40.87	6.30492
40.88	6.33025
40.89	6.30492
40.9	6.29933
40.91	6.28387
40.92	6.32893
40.93	6.27433
40.94	6.28551
40.95	6.26413
40.96	6.28913
40.97	6.29768
40.98	6.30064
40.99	6.27762
41	6.31084
41.01	6.31841
41.02	6.34176
41.03	6.31512
41.04	6.299
41.05	6.28321
41.06	6.29867
41.07	6.3342
41.08	6.30952
41.09	6.31775
41.1	6.32433
41.11	6.28255
41.12	6.30591
41.13	6.31084
41.14	6.32827
41.15	6.3138
41.16	6.28189
41.17	6.29439
41.18	6.2786
41.19	6.28979
41.2	6.29834
41.21	6.34275
41.22	6.31643
41.23	6.28584
41.24	6.26972
41.25	6.27136
41.26	6.29538
41.27	6.33946
41.28	6.33781
41.29	6.32202
41.3	6.25623
41.31	6.31413
41.32	6.35328
41.33	6.2661
41.34	6.30492
41.35	6.30558
41.36	6.28715
41.37	6.32071
41.38	6.26709
41.39	6.27498
41.4	6.34176
41.41	6.35525
41.42	6.3388
41.43	6.32762
41.44	6.29275
41.45	6.29472
41.46	6.31347
41.47	6.26281
41.48	6.27268
41.49	6.32137
41.5	6.29012
41.51	6.30426
41.52	6.24834
41.53	6.30064
41.54	6.27367
41.55	6.274
41.56	6.30558
41.57	6.35163
41.58	6.31841
41.59	6.27169
41.6	6.28288
41.61	6.32301
41.62	6.32663
41.63	6.28419
41.64	6.27104
41.65	6.31643
41.66	6.28617
41.67	6.34966
41.68	6.31709
41.69	6.30722
41.7	6.3138
41.71	6.24867
41.72	6.2865
41.73	6.28847
41.74	6.28847
41.75	6.26873
41.76	6.26479
41.77	6.33222
41.78	6.28781
41.79	6.26643
41.8	6.32795
41.81	6.32071
41.82	6.3013
41.83	6.29505
41.84	6.30689
41.85	6.324
41.86	6.31972
41.87	6.32696
41.88	6.29669
41.89	6.30623
41.9	6.34637
41.91	6.28979
41.92	6.31906
41.93	6.31841
41.94	6.3536
41.95	6.30656
41.96	6.26972
41.97	6.27696
41.98	6.30558
41.99	6.29406
42	6.31281
42.01	6.29637
42.02	6.274
42.03	6.26577
42.04	6.30294
42.05	6.30492
42.06	6.274
42.07	6.26643
42.08	6.32959
42.09	6.31446
42.1	6.27498
42.11	6.30097
42.12	6.26676
42.13	6.28255
42.14	6.30262
42.15	6.2809
42.16	6.26117
42.17	6.32893
42.18	6.30919
42.19	6.27959
42.2	6.31709
42.21	6.29373
42.22	6.28321
42.23	6.28321
42.24	6.26413
42.25	6.27498
42.26	6.3467
42.27	6.30919
42.28	6.27696
42.29	6.32564
42.3	6.29242
42.31	6.28255
42.32	6.31018
42.33	6.28452
42.34	6.28748
42.35	6.31051
42.36	6.33452
42.37	6.32137
42.38	6.2763
42.39	6.25229
42.4	6.32104
42.41	6.29209
42.42	6.34275
42.43	6.31808
42.44	6.32367
42.45	6.36907
42.46	6.30163
42.47	6.29373
42.48	6.25393
42.49	6.25064
42.5	6.3217
42.51	6.30262
42.52	6.29505
42.53	6.31676
42.54	6.31413
42.55	6.30591
42.56	6.29933
42.57	6.31775
42.58	6.31939
42.59	6.32663
42.6	6.3536
42.61	6.31808
42.62	6.29538
42.63	6.25854
42.64	6.24867
42.65	6.30031
42.66	6.274
42.67	6.30393
42.68	6.35097
42.69	6.35591
42.7	6.2911
42.71	6.33091
42.72	6.30064
42.73	6.33716
42.74	6.30623
42.75	6.30887
42.76	6.31051
42.77	6.30788
42.78	6.3467
42.79	6.29834
42.8	6.28683
42.81	6.31841
42.82	6.32795
42.83	6.31808
42.84	6.30492
42.85	6.29834
42.86	6.32137
42.87	6.25623
42.88	6.30821
42.89	6.33814
42.9	6.32466
42.91	6.31216
42.92	6.27926
42.93	6.33156
42.94	6.28222
42.95	6.32005
42.96	6.32696
42.97	6.31117
42.98	6.28156
42.99	6.28814
43	6.28584
43.01	6.26051
43.02	6.28452
43.03	6.28781
43.04	6.29341
43.05	6.28189
43.06	6.27235
43.07	6.28025
43.08	6.26347
43.09	6.31545
43.1	6.31216
43.11	6.30689
43.12	6.29801
43.13	6.2615
43.14	6.28748
43.15	6.23617
43.16	6.28222
43.17	6.25261
43.18	6.25919
43.19	6.28354
43.2	6.28419
43.21	6.2809
43.22	6.28518
43.23	6.34999
43.24	6.32959
43.25	6.34012
43.26	6.34999
43.27	6.31709
43.28	6.27104
43.29	6.26972
43.3	6.3217
43.31	6.3138
43.32	6.27893
43.33	6.33156
43.34	6.33781
43.35	6.27663
43.36	6.27498
43.37	6.28617
43.38	6.32104
43.39	6.30327
43.4	6.32104
43.41	6.34834
43.42	6.24834
43.43	6.30229
43.44	6.27465
43.45	6.29604
43.46	6.23123
43.47	6.23814
43.48	6.27433
43.49	6.2638
43.5	6.30623
43.51	6.27696
43.52	6.30327
43.53	6.30163
43.54	6.27729
43.55	6.32137
43.56	6.28058
43.57	6.29406
43.58	6.30459
43.59	6.28025
43.6	6.28222
43.61	6.28222
43.62	6.29571
43.63	6.3115
43.64	6.26742
43.65	6.25459
43.66	6.26939
43.67	6.30294
43.68	6.27926
43.69	6.31906
43.7	6.2388
43.71	6.25886
43.72	6.27433
43.73	6.30064
43.74	6.28748
43.75	6.31545
43.76	6.33156
43.77	6.30492
43.78	6.28979
43.79	6.30294
43.8	6.34735
43.81	6.28387
43.82	6.27959
43.83	6.28419
43.84	6.28617
43.85	6.31512
43.86	6.31314
43.87	6.29439
43.88	6.34406
43.89	6.29472
43.9	6.32498
43.91	6.37893
43.92	6.33946
43.93	6.31775
43.94	6.29242
43.95	6.26479
43.96	6.27136
43.97	6.28979
43.98	6.28189
43.99	6.30525
44	6.2684
44.01	6.349
44.02	6.28814
44.03	6.27235
44.04	6.2911
44.05	6.31084
44.06	6.2888
44.07	6.29143
44.08	6.25656
44.09	6.31545
44.1	6.29735
44.11	6.33584
44.12	6.31808
44.13	6.30031
44.14	6.29472
44.15	6.29044
44.16	6.28979
44.17	6.26413
44.18	6.28715
44.19	6.29044
44.2	6.25689
44.21	6.299
44.22	6.33781
44.23	6.27729
44.24	6.2888
44.25	6.29077
44.26	6.2763
44.27	6.27992
44.28	6.30558
44.29	6.27169
44.3	6.29439
44.31	6.30722
44.32	6.26972
44.33	6.27762
44.34	6.29768
44.35	6.28354
44.36	6.25558
44.37	6.25327
44.38	6.29176
44.39	6.3036
44.4	6.24406
44.41	6.29176
44.42	6.31248
44.43	6.30985
44.44	6.27465
44.45	6.29242
44.46	6.26544
44.47	6.29439
44.48	6.29012
44.49	6.24439
44.5	6.23518
44.51	6.25722
44.52	6.28288
44.53	6.26676
44.54	6.32367
44.55	6.26117
44.56	6.30821
44.57	6.31479
44.58	6.29406
44.59	6.31775
44.6	6.31051
44.61	6.27202
44.62	6.27038
44.63	6.30788
44.64	6.34801
44.65	6.3217
44.66	6.30229
44.67	6.28485
44.68	6.27071
44.69	6.28551
44.7	6.29044
44.71	6.33091
44.72	6.33781
44.73	6.26775
44.74	6.24143
44.75	6.3115
44.76	6.28715
44.77	6.29077
44.78	6.26281
44.79	6.22367
44.8	6.26544
44.81	6.299
44.82	6.31939
44.83	6.32268
44.84	6.28387
44.85	6.29637
44.86	6.31413
44.87	6.29077
44.88	6.2661
44.89	6.26281
44.9	6.31545
44.91	6.32564
44.92	6.28715
44.93	6.32334
44.94	6.32663
44.95	6.32893
44.96	6.27663
44.97	6.274
44.98	6.27498
44.99	6.26183
45	6.24538
45.01	6.25492
45.02	6.31676
45.03	6.31413
45.04	6.32531
45.05	6.30229
45.06	6.30327
45.07	6.30031
45.08	6.27235
45.09	6.30196
45.1	6.35064
45.11	6.3036
45.12	6.27762
45.13	6.29538
45.14	6.31939
45.15	6.27104
45.16	6.30262
45.17	6.31216
45.18	6.27104
45.19	6.28781
45.2	6.32564
45.21	6.29966
45.22	6.29373
45.23	6.28321
45.24	6.26544
45.25	6.23255
45.26	6.27301
45.27	6.29012
45.28	6.25722
45.29	6.32729
45.3	6.34143
45.31	6.27465
45.32	6.29801
45.33	6.31183
45.34	6.29604
45.35	6.31084
45.36	6.32893
45.37	6.32893
45.38	6.29472
45.39	6.28025
45.4	6.25821
45.41	6.23485
45.42	6.27169
45.43	6.31742
45.44	6.25492
45.45	6.2388
45.46	6.29209
45.47	6.27794
45.48	6.30821
45.49	6.27959
45.5	6.28551
45.51	6.29735
45.52	6.29571
45.53	6.30689
45.54	6.30689
45.55	6.25788
45.56	6.30558
45.57	6.27104
45.58	6.2559
45.59	6.33518
45.6	6.32268
45.61	6.2888
45.62	6.27827
45.63	6.29341
45.64	6.28255
45.65	6.27498
45.66	6.27893
45.67	6.29966
45.68	6.29439
45.69	6.29735
45.7	6.25952
45.71	6.28551
45.72	6.29604
45.73	6.34045
45.74	6.3138
45.75	6.24505
45.76	6.3013
45.77	6.30919
45.78	6.29341
45.79	6.2911
45.8	6.3036
45.81	6.28518
45.82	6.28321
45.83	6.31018
45.84	6.28683
45.85	6.31775
45.86	6.28419
45.87	6.29406
45.88	6.23551
45.89	6.30097
45.9	6.28781
45.91	6.30196
45.92	6.25952
45.93	6.30031
45.94	6.30196
45.95	6.28946
45.96	6.299
45.97	6.26775
45.98	6.2638
45.99	6.28814
46	6.22761
46.01	6.31709
46.02	6.3115
46.03	6.3138
46.04	6.30558
46.05	6.26709
46.06	6.27433
46.07	6.27794
46.08	6.33025
46.09	6.28551
46.1	6.2638
46.11	6.26742
46.12	6.33222
46.13	6.27597
46.14	6.27729
46.15	6.30031
46.16	6.29143
46.17	6.25919
46.18	6.28485
46.19	6.274
46.2	6.24768
46.21	6.30426
46.22	6.3115
46.23	6.30163
46.24	6.32104
46.25	6.2865
46.26	6.33321
46.27	6.30788
46.28	6.30426
46.29	6.27498
46.3	6.25985
46.31	6.24242
46.32	6.29472
46.33	6.33617
46.34	6.30854
46.35	6.29998
46.36	6.29077
46.37	6.26018
46.38	6.32959
46.39	6.34176
46.4	6.27136
46.41	6.29472
46.42	6.32104
46.43	6.29472
46.44	6.27597
46.45	6.30031
46.46	6.30558
46.47	6.3365
46.48	6.31347
46.49	6.21972
46.5	6.24604
46.51	6.2888
46.52	6.29505
46.53	6.28156
46.54	6.26808
46.55	6.26051
46.56	6.28222
46.57	6.31577
46.58	6.27992
46.59	6.31676
46.6	6.34538
46.61	6.29669
46.62	6.24143
46.63	6.2536
46.64	6.27202
46.65	6.28419
46.66	6.31939
46.67	6.32235
46.68	6.2763
46.69	6.29505
46.7	6.29242
46.71	6.28123
46.72	6.28946
46.73	6.28156
46.74	6.2684
46.75	6.24472
46.76	6.28288
46.77	6.32301
46.78	6.27433
46.79	6.2615
46.8	6.23617
46.81	6.28485
46.82	6.3217
46.83	6.32137
46.84	6.30525
46.85	6.31841
46.86	6.31281
46.87	6.34439
46.88	6.31281
46.89	6.27893
46.9	6.28123
46.91	6.27564
46.92	6.29604
46.93	6.30064
46.94	6.30426
46.95	6.30393
46.96	6.31183
46.97	6.31775
46.98	6.25163
46.99	6.29275
47	6.25919
47.01	6.25294
47.02	6.2911
47.03	6.30788
47.04	6.30722
47.05	6.2786
47.06	6.29768
47.07	6.23715
47.08	6.24373
47.09	6.23419
47.1	6.22893
47.11	6.25196
47.12	6.32104
47.13	6.24965
47.14	6.27564
47.15	6.30558
47.16	6.26544
47.17	6.27334
47.18	6.25656
47.19	6.28123
47.2	6.31248
47.21	6.3161
47.22	6.28419
47.23	6.26643
47.24	6.30623
47.25	6.27136
47.26	6.31808
47.27	6.3365
47.28	6.31084
47.29	6.32926
47.3	6.34209
47.31	6.35426
47.32	6.3013
47.33	6.26544
47.34	6.28715
47.35	6.25985
47.36	6.26939
47.37	6.2809
47.38	6.2661
47.39	6.26939
47.4	6.2786
47.41	6.29637
47.42	6.27827
47.43	6.29308
47.44	6.29966
47.45	6.21511
47.46	6.25952
47.47	6.28222
47.48	6.29341
47.49	6.26446
47.5	6.2684
47.51	6.28617
47.52	6.30887
47.53	6.26676
47.54	6.24965
47.55	6.27202
47.56	6.27169
47.57	6.28485
47.58	6.28123
47.59	6.30327
47.6	6.27268
47.61	6.31479
47.62	6.27498
47.63	6.29012
47.64	6.28058
47.65	6.28979
47.66	6.29604
47.67	6.30459
47.68	6.30952
47.69	6.26084
47.7	6.26972
47.71	6.32893
47.72	6.29275
47.73	6.26479
47.74	6.2911
47.75	6.27301
47.76	6.31906
47.77	6.28321
47.78	6.28979
47.79	6.25722
47.8	6.26709
47.81	6.28156
47.82	6.27235
47.83	6.28452
47.84	6.27235
47.85	6.27597
47.86	6.24143
47.87	6.3217
47.88	6.27663
47.89	6.28781
47.9	6.29439
47.91	6.29998
47.92	6.24867
47.93	6.24275
47.94	6.29571
47.95	6.34472
47.96	6.27169
47.97	6.32531
47.98	6.31117
47.99	6.32268
48	6.30393
48.01	6.28123
48.02	6.27794
48.03	6.27926
48.04	6.32663
48.05	6.32104
48.06	6.29242
48.07	6.3286
48.08	6.27433
48.09	6.27959
48.1	6.26873
48.11	6.31972
48.12	6.31248
48.13	6.30229
48.14	6.28156
48.15	6.26183
48.16	6.30327
48.17	6.27893
48.18	6.3638
48.19	6.23321
48.2	6.24801
48.21	6.29637
48.22	6.28814
48.23	6.33847
48.24	6.30163
48.25	6.2365
48.26	6.27367
48.27	6.33288
48.28	6.31216
48.29	6.25919
48.3	6.27301
48.31	6.28485
48.32	6.25689
48.33	6.28123
48.34	6.28946
48.35	6.27005
48.36	6.27301
48.37	6.29604
48.38	6.27268
48.39	6.30887
48.4	6.29143
48.41	6.32301
48.42	6.32893
48.43	6.28715
48.44	6.30262
48.45	6.32959
48.46	6.23913
48.47	6.26018
48.48	6.26215
48.49	6.30262
48.5	6.29341
48.51	6.30854
48.52	6.27696
48.53	6.31808
48.54	6.26906
48.55	6.2786
48.56	6.2809
48.57	6.28748
48.58	6.28222
48.59	6.28979
48.6	6.26051
48.61	6.25755
48.62	6.33946
48.63	6.32071
48.64	6.28683
48.65	6.24801
48.66	6.27794
48.67	6.31347
48.68	6.28025
48.69	6.29044
48.7	6.274
48.71	6.25393
48.72	6.25492
48.73	6.29637
48.74	6.28946
48.75	6.24242
48.76	6.25886
48.77	6.23913
48.78	6.27564
48.79	6.30294
48.8	6.20788
48.81	6.25229
48.82	6.24735
48.83	6.29341
48.84	6.29341
48.85	6.2865
48.86	6.28222
48.87	6.28781
48.88	6.26676
48.89	6.25294
48.9	6.30459
48.91	6.32597
48.92	6.30887
48.93	6.2786
48.94	6.29505
48.95	6.28814
48.96	6.26906
48.97	6.27926
48.98	6.29933
48.99	6.2809
49	6.29768
49.01	6.30887
49.02	6.31545
49.03	6.28781
49.04	6.32104
49.05	6.24834
49.06	6.2763
49.07	6.29998
49.08	6.29637
49.09	6.28518
49.1	6.24505
49.11	6.24932
49.12	6.25886
49.13	6.31841
49.14	6.2786
49.15	6.29209
49.16	6.29044
49.17	6.24998
49.18	6.26873
49.19	6.26183
49.2	6.32071
49.21	6.32433
49.22	6.31709
49.23	6.3036
49.24	6.26248
49.25	6.29308
49.26	6.28058
49.27	6.23551
49.28	6.25755
49.29	6.29242
49.3	6.28058
49.31	6.25788
49.32	6.23781
49.33	6.26479
49.34	6.31841
49.35	6.27038
49.36	6.25722
49.37	6.32367
49.38	6.34702
49.39	6.32729
49.4	6.27433
49.41	6.25722
49.42	6.3013
49.43	6.2911
49.44	6.27926
49.45	6.29801
49.46	6.29669
49.47	6.26742
49.48	6.23913
49.49	6.31216
49.5	6.34637
49.51	6.27597
49.52	6.24801
49.53	6.27498
49.54	6.33979
49.55	6.32104
49.56	6.23715
49.57	6.2309
49.58	6.28715
49.59	6.31413
49.6	6.30229
49.61	6.27959
49.62	6.25919
49.63	6.25788
49.64	6.25788
49.65	6.25393
49.66	6.24702
49.67	6.2638
49.68	6.28847
49.69	6.25097
49.7	6.31413
49.71	6.28847
49.72	6.32498
49.73	6.26742
49.74	6.28946
49.75	6.31216
49.76	6.30393
49.77	6.29439
49.78	6.30623
49.79	6.28814
49.8	6.27235
49.81	6.26413
49.82	6.31413
49.83	6.29998
49.84	6.30525
49.85	6.24538
49.86	6.25689
49.87	6.30919
49.88	6.29012
49.89	6.27071
49.9	6.25886
49.91	6.29604
49.92	6.27169
49.93	6.26248
49.94	6.28222
49.95	6.27268
49.96	6.29538
49.97	6.30558
49.98	6.31808
49.99	6.32729
50	6.29768
