"BIO-KINE ASCII FILE"
"_COMMENT"	"MOS-500 Spectrometer"
"_COMMENT"	"Kinetics measurement"
"_COMMENT"	"Y Unit : Volt,  X Unit : s"
"_COMMENT"	"Excitation wavelength : 380 nm"
"_COMMENT"	"Fentes bandwidth =  1 nm"
"_COMMENT"	"HV= 1000V"
"_COMMENT"	"Timebase  1 =  .01 s   3001 pts"
"_SFM"	"SFM-400 /S  Advanced mode"
"_SFM"	"Ratio : S1: 2.5, S2: 0, S3: 0, S4: 1"
"_SFM"	"Content : S1: , S2: , S3: , S4:"
"_SFM"	"Concentration : S1: , S2: , S3: , S4:"
"_SFM"	"Total volume : 209 µl  Flow : 3.5 mL/s"
"_SFM"	"Acquisition start :  10 ms before stop"
"_SFM"	"cuve=FC-15, s1=10 ml , s2=10 ml , s3=10 ml , s4=1.9 ml"
"_UNITX"	"s"
"_UNITY"	"Volt"
"_DELTAX"	0
"_DATA"
1e-300	2.66237
0.01	2.65579
0.02	2.62553
0.03	2.66369
0.04	2.69
0.05	2.71007
0.06	2.7354
0.07	2.77126
0.08	2.77849
0.09	2.77323
0.1	2.7808
0.11	2.80974
0.12	2.8229
0.13	2.79198
0.14	2.81961
0.15	2.8433
0.16	2.81731
0.17	2.83277
0.18	2.83968
0.19	2.84001
0.2	2.87455
0.21	2.83211
0.22	2.81632
0.23	2.83146
0.24	2.84823
0.25	2.8308
0.26	2.79626
0.27	2.82817
0.28	2.85415
0.29	2.85547
0.3	2.89527
0.31	2.86863
0.32	2.82586
0.33	2.82718
0.34	2.83869
0.35	2.85185
0.36	2.85284
0.37	2.84955
0.38	2.83409
0.39	2.85054
0.4	2.8354
0.41	2.84264
0.42	2.85876
0.43	2.84757
0.44	2.84429
0.45	2.82422
0.46	2.83507
0.47	2.86633
0.48	2.85251
0.49	2.85152
0.5	2.85777
0.51	2.85646
0.52	2.86534
0.53	2.81665
0.54	2.8229
0.55	2.84659
0.56	2.84988
0.57	2.86961
0.58	2.84692
0.59	2.84988
0.6	2.80349
0.61	2.82521
0.62	2.85876
0.63	2.84264
0.64	2.81731
0.65	2.83244
0.66	2.86106
0.67	2.85744
0.68	2.86238
0.69	2.83606
0.7	2.8581
0.71	2.86896
0.72	2.87192
0.73	2.83935
0.74	2.83573
0.75	2.83343
0.76	2.82882
0.77	2.83836
0.78	2.8558
0.79	2.85679
0.8	2.85942
0.81	2.86369
0.82	2.82389
0.83	2.81665
0.84	2.81731
0.85	2.86567
0.86	2.87685
0.87	2.83376
0.88	2.82751
0.89	2.7956
0.9	2.8433
0.91	2.83573
0.92	2.80251
0.93	2.80744
0.94	2.8002
0.95	2.81073
0.96	2.8229
0.97	2.8229
0.98	2.82619
0.99	2.82652
1	2.79231
1.01	2.82422
1.02	2.8683
1.03	2.85251
1.04	2.84692
1.05	2.83376
1.06	2.83935
1.07	2.83376
1.08	2.83606
1.09	2.84231
1.1	2.86205
1.11	2.84922
1.12	2.84034
1.13	2.84363
1.14	2.84988
1.15	2.8456
1.16	2.81599
1.17	2.80744
1.18	2.8354
1.19	2.81994
1.2	2.81435
1.21	2.83639
1.22	2.85514
1.23	2.81336
1.24	2.82257
1.25	2.85152
1.26	2.83935
1.27	2.83113
1.28	2.82784
1.29	2.85613
1.3	2.84659
1.31	2.83935
1.32	2.84527
1.33	2.84889
1.34	2.83705
1.35	2.8058
1.36	2.83902
1.37	2.82619
1.38	2.84297
1.39	2.83244
1.4	2.8285
1.41	2.79626
1.42	2.82652
1.43	2.83343
1.44	2.841
1.45	2.81271
1.46	2.79955
1.47	2.78705
1.48	2.81336
1.49	2.8331
1.5	2.82126
1.51	2.84889
1.52	2.86369
1.53	2.82488
1.54	2.84297
1.55	2.81336
1.56	2.80974
1.57	2.8058
1.58	2.82389
1.59	2.78738
1.6	2.79198
1.61	2.8354
1.62	2.80843
1.63	2.82718
1.64	2.82455
1.65	2.79165
1.66	2.80843
1.67	2.8081
1.68	2.80152
1.69	2.81797
1.7	2.82027
1.71	2.81961
1.72	2.83211
1.73	2.82915
1.74	2.82455
1.75	2.82027
1.76	2.82027
1.77	2.81863
1.78	2.82422
1.79	2.77816
1.8	2.8354
1.81	2.82126
1.82	2.81863
1.83	2.82159
1.84	2.81007
1.85	2.8104
1.86	2.84264
1.87	2.79757
1.88	2.77224
1.89	2.78803
1.9	2.78573
1.91	2.79428
1.92	2.80942
1.93	2.81501
1.94	2.84067
1.95	2.83606
1.96	2.81238
1.97	2.8308
1.98	2.83836
1.99	2.80152
2	2.83343
2.01	2.8104
2.02	2.81073
2.03	2.79593
2.04	2.82981
2.05	2.84396
2.06	2.84132
2.07	2.82817
2.08	2.8183
2.09	2.83705
2.1	2.79955
2.11	2.7979
2.12	2.80317
2.13	2.79066
2.14	2.80119
2.15	2.83573
2.16	2.82356
2.17	2.84264
2.18	2.80547
2.19	2.79823
2.2	2.80448
2.21	2.78803
2.22	2.81764
2.23	2.81172
2.24	2.80284
2.25	2.85152
2.26	2.84461
2.27	2.79132
2.28	2.79988
2.29	2.81271
2.3	2.80349
2.31	2.83836
2.32	2.82685
2.33	2.82323
2.34	2.82323
2.35	2.81928
2.36	2.83935
2.37	2.80185
2.38	2.81106
2.39	2.81205
2.4	2.81665
2.41	2.81567
2.42	2.81369
2.43	2.7877
2.44	2.83639
2.45	2.78836
2.46	2.77849
2.47	2.80777
2.48	2.80974
2.49	2.80613
2.5	2.78573
2.51	2.77652
2.52	2.80317
2.53	2.82915
2.54	2.77915
2.55	2.79066
2.56	2.82159
2.57	2.81764
2.58	2.8058
2.59	2.80382
2.6	2.78968
2.61	2.79198
2.62	2.80317
2.63	2.7752
2.64	2.80251
2.65	2.79264
2.66	2.79856
2.67	2.80876
2.68	2.81139
2.69	2.77619
2.7	2.78968
2.71	2.77619
2.72	2.80777
2.73	2.79428
2.74	2.79066
2.75	2.81632
2.76	2.79922
2.77	2.81896
2.78	2.80942
2.79	2.81139
2.8	2.80317
2.81	2.7877
2.82	2.7933
2.83	2.80382
2.84	2.80744
2.85	2.80974
2.86	2.78639
2.87	2.79001
2.88	2.81106
2.89	2.81139
2.9	2.81468
2.91	2.78145
2.92	2.80843
2.93	2.7956
2.94	2.78474
2.95	2.82356
2.96	2.81271
2.97	2.77816
2.98	2.80251
2.99	2.79757
3	2.80317
3.01	2.79066
3.02	2.78277
3.03	2.83705
3.04	2.81534
3.05	2.83014
3.06	2.79889
3.07	2.79066
3.08	2.79955
3.09	2.83113
3.1	2.80909
3.11	2.79264
3.12	2.82521
3.13	2.79264
3.14	2.81896
3.15	2.81928
3.16	2.81599
3.17	2.81961
3.18	2.77619
3.19	2.78047
3.2	2.79066
3.21	2.81106
3.22	2.76468
3.23	2.80744
3.24	2.77718
3.25	2.78014
3.26	2.79626
3.27	2.8285
3.28	2.80284
3.29	2.78409
3.3	2.79297
3.31	2.8308
3.32	2.79132
3.33	2.78343
3.34	2.8058
3.35	2.76764
3.36	2.78244
3.37	2.81172
3.38	2.7808
3.39	2.7831
3.4	2.79527
3.41	2.77323
3.42	2.80678
3.43	2.80053
3.44	2.80185
3.45	2.77191
3.46	2.76566
3.47	2.80317
3.48	2.80415
3.49	2.7933
3.5	2.79264
3.51	2.79856
3.52	2.77849
3.53	2.78836
3.54	2.79724
3.55	2.78573
3.56	2.82027
3.57	2.79198
3.58	2.77422
3.59	2.77882
3.6	2.80777
3.61	2.78409
3.62	2.7979
3.63	2.76994
3.64	2.78935
3.65	2.7854
3.66	2.81106
3.67	2.76928
3.68	2.79297
3.69	2.79724
3.7	2.76731
3.71	2.77915
3.72	2.80152
3.73	2.78902
3.74	2.78672
3.75	2.78738
3.76	2.7729
3.77	2.79757
3.78	2.76994
3.79	2.82389
3.8	2.79198
3.81	2.79132
3.82	2.81238
3.83	2.79395
3.84	2.77191
3.85	2.76994
3.86	2.80152
3.87	2.80317
3.88	2.78507
3.89	2.80382
3.9	2.80843
3.91	2.8081
3.92	2.81238
3.93	2.79757
3.94	2.77784
3.95	2.7808
3.96	2.79626
3.97	2.80119
3.98	2.77652
3.99	2.78211
4	2.77981
4.01	2.8183
4.02	2.81172
4.03	2.80251
4.04	2.80909
4.05	2.79626
4.06	2.7683
4.07	2.80909
4.08	2.77224
4.09	2.80284
4.1	2.80909
4.11	2.77356
4.12	2.78935
4.13	2.78606
4.14	2.8104
4.15	2.80678
4.16	2.78409
4.17	2.78606
4.18	2.7956
4.19	2.75876
4.2	2.80251
4.21	2.81863
4.22	2.80678
4.23	2.78244
4.24	2.7604
4.25	2.79363
4.26	2.81205
4.27	2.79527
4.28	2.8058
4.29	2.80119
4.3	2.79034
4.31	2.76073
4.32	2.77257
4.33	2.77685
4.34	2.76007
4.35	2.78902
4.36	2.77356
4.37	2.80284
4.38	2.7752
4.39	2.75711
4.4	2.79626
4.41	2.81698
4.42	2.78211
4.43	2.74428
4.44	2.7729
4.45	2.80514
4.46	2.74922
4.47	2.74856
4.48	2.77619
4.49	2.79165
4.5	2.80481
4.51	2.79856
4.52	2.77356
4.53	2.79231
4.54	2.81501
4.55	2.79297
4.56	2.78014
4.57	2.79593
4.58	2.80843
4.59	2.79955
4.6	2.76468
4.61	2.74757
4.62	2.79757
4.63	2.75185
4.64	2.76501
4.65	2.75974
4.66	2.79395
4.67	2.77849
4.68	2.77487
4.69	2.78145
4.7	2.78211
4.71	2.78573
4.72	2.80613
4.73	2.80415
4.74	2.76731
4.75	2.77323
4.76	2.74658
4.77	2.79132
4.78	2.75349
4.79	2.74658
4.8	2.74823
4.81	2.76599
4.82	2.76599
4.83	2.77487
4.84	2.7808
4.85	2.8002
4.86	2.8058
4.87	2.75678
4.88	2.76106
4.89	2.7683
4.9	2.76073
4.91	2.77553
4.92	2.77619
4.93	2.78672
4.94	2.76336
4.95	2.8104
4.96	2.77685
4.97	2.76237
4.98	2.75119
4.99	2.80251
5	2.7354
5.01	2.77586
5.02	2.78409
5.03	2.78441
5.04	2.7831
5.05	2.78639
5.06	2.78441
5.07	2.77356
5.08	2.78705
5.09	2.76731
5.1	2.77323
5.11	2.75547
5.12	2.78145
5.13	2.76336
5.14	2.76566
5.15	2.75382
5.16	2.7877
5.17	2.79034
5.18	2.74428
5.19	2.76106
5.2	2.78145
5.21	2.78606
5.22	2.79165
5.23	2.76501
5.24	2.78178
5.25	2.75843
5.26	2.76961
5.27	2.76961
5.28	2.79034
5.29	2.75744
5.3	2.76237
5.31	2.77422
5.32	2.7729
5.33	2.77652
5.34	2.80218
5.35	2.79659
5.36	2.78935
5.37	2.8058
5.38	2.79724
5.39	2.79428
5.4	2.81994
5.41	2.7933
5.42	2.74987
5.43	2.75744
5.44	2.78606
5.45	2.80974
5.46	2.78869
5.47	2.7558
5.48	2.75678
5.49	2.76797
5.5	2.77257
5.51	2.78474
5.52	2.76534
5.53	2.80481
5.54	2.79066
5.55	2.77685
5.56	2.75744
5.57	2.79428
5.58	2.78573
5.59	2.76303
5.6	2.73869
5.61	2.76731
5.62	2.76501
5.63	2.79001
5.64	2.76073
5.65	2.76435
5.66	2.75744
5.67	2.77619
5.68	2.7729
5.69	2.77718
5.7	2.78343
5.71	2.78244
5.72	2.77586
5.73	2.77586
5.74	2.79001
5.75	2.77849
5.76	2.78211
5.77	2.7752
5.78	2.76205
5.79	2.79297
5.8	2.74626
5.81	2.7752
5.82	2.79132
5.83	2.78573
5.84	2.81303
5.85	2.77784
5.86	2.76698
5.87	2.7831
5.88	2.7275
5.89	2.78606
5.9	2.82685
5.91	2.78869
5.92	2.7808
5.93	2.7627
5.94	2.79231
5.95	2.76731
5.96	2.76862
5.97	2.79856
5.98	2.77422
5.99	2.76501
6	2.7854
6.01	2.75612
6.02	2.78836
6.03	2.78573
6.04	2.76632
6.05	2.74987
6.06	2.75481
6.07	2.76501
6.08	2.77093
6.09	2.74658
6.1	2.7275
6.11	2.74593
6.12	2.73474
6.13	2.76007
6.14	2.73211
6.15	2.76007
6.16	2.7627
6.17	2.78441
6.18	2.7683
6.19	2.75744
6.2	2.78803
6.21	2.80317
6.22	2.75908
6.23	2.78836
6.24	2.7604
6.25	2.75316
6.26	2.74724
6.27	2.75218
6.28	2.76698
6.29	2.72027
6.3	2.75053
6.31	2.76994
6.32	2.76435
6.33	2.77126
6.34	2.72586
6.35	2.73507
6.36	2.77455
6.37	2.7706
6.38	2.79922
6.39	2.7831
6.4	2.75941
6.41	2.77718
6.42	2.77751
6.43	2.75218
6.44	2.76336
6.45	2.76468
6.46	2.7729
6.47	2.77553
6.48	2.75053
6.49	2.7831
6.5	2.7581
6.51	2.75053
6.52	2.75645
6.53	2.7604
6.54	2.76698
6.55	2.75612
6.56	2.77553
6.57	2.7729
6.58	2.75119
6.59	2.77093
6.6	2.73343
6.61	2.74922
6.62	2.75382
6.63	2.74198
6.64	2.78047
6.65	2.76665
6.66	2.77619
6.67	2.77027
6.68	2.7706
6.69	2.76501
6.7	2.7502
6.71	2.7502
6.72	2.79165
6.73	2.77882
6.74	2.77981
6.75	2.7104
6.76	2.73474
6.77	2.71928
6.78	2.7479
6.79	2.76764
6.8	2.77323
6.81	2.75612
6.82	2.81797
6.83	2.76073
6.84	2.75283
6.85	2.74066
6.86	2.74329
6.87	2.76501
6.88	2.7558
6.89	2.74527
6.9	2.76665
6.91	2.76501
6.92	2.73047
6.93	2.75678
6.94	2.74626
6.95	2.73277
6.96	2.77356
6.97	2.79527
6.98	2.74856
6.99	2.75382
7	2.74428
7.01	2.79724
7.02	2.7683
7.03	2.74264
7.04	2.76632
7.05	2.75185
7.06	2.77455
7.07	2.7604
7.08	2.75316
7.09	2.7479
7.1	2.75152
7.11	2.73047
7.12	2.74593
7.13	2.76797
7.14	2.75415
7.15	2.73014
7.16	2.75316
7.17	2.74757
7.18	2.77159
7.19	2.75843
7.2	2.75349
7.21	2.73277
7.22	2.7604
7.23	2.77882
7.24	2.7558
7.25	2.75974
7.26	2.76139
7.27	2.77027
7.28	2.77191
7.29	2.77389
7.3	2.74099
7.31	2.74395
7.32	2.7706
7.33	2.76632
7.34	2.7377
7.35	2.71994
7.36	2.73277
7.37	2.78145
7.38	2.78441
7.39	2.76007
7.4	2.76599
7.41	2.76599
7.42	2.75711
7.43	2.76994
7.44	2.77389
7.45	2.79297
7.46	2.74691
7.47	2.74593
7.48	2.76007
7.49	2.7456
7.5	2.7854
7.51	2.74757
7.52	2.74132
7.53	2.75547
7.54	2.77487
7.55	2.78639
7.56	2.75349
7.57	2.76007
7.58	2.74922
7.59	2.74329
7.6	2.77718
7.61	2.7627
7.62	2.74757
7.63	2.75941
7.64	2.73178
7.65	2.74132
7.66	2.74001
7.67	2.76369
7.68	2.75316
7.69	2.73178
7.7	2.74099
7.71	2.77323
7.72	2.75185
7.73	2.7558
7.74	2.74165
7.75	2.76665
7.76	2.77323
7.77	2.75974
7.78	2.79066
7.79	2.76106
7.8	2.73474
7.81	2.75185
7.82	2.76731
7.83	2.71566
7.84	2.74066
7.85	2.74527
7.86	2.73178
7.87	2.73145
7.88	2.74428
7.89	2.75349
7.9	2.74198
7.91	2.75218
7.92	2.73145
7.93	2.75152
7.94	2.74395
7.95	2.71862
7.96	2.73836
7.97	2.71665
7.98	2.75843
7.99	2.74889
8	2.75218
8.01	2.74001
8.02	2.7627
8.03	2.78507
8.04	2.75908
8.05	2.75547
8.06	2.75876
8.07	2.73507
8.08	2.73606
8.09	2.76797
8.1	2.76007
8.11	2.74428
8.12	2.78409
8.13	2.76501
8.14	2.74066
8.15	2.74099
8.16	2.75053
8.17	2.75382
8.18	2.71829
8.19	2.74494
8.2	2.7502
8.21	2.75185
8.22	2.74724
8.23	2.73672
8.24	2.7831
8.25	2.74593
8.26	2.73968
8.27	2.74955
8.28	2.7354
8.29	2.77093
8.3	2.78343
8.31	2.76731
8.32	2.7252
8.33	2.73869
8.34	2.7683
8.35	2.76007
8.36	2.76007
8.37	2.76698
8.38	2.76797
8.39	2.77159
8.4	2.73343
8.41	2.71533
8.42	2.75251
8.43	2.73869
8.44	2.73474
8.45	2.71797
8.46	2.72783
8.47	2.7502
8.48	2.73014
8.49	2.7558
8.5	2.73507
8.51	2.74955
8.52	2.74691
8.53	2.74823
8.54	2.73014
8.55	2.73968
8.56	2.75448
8.57	2.76435
8.58	2.75612
8.59	2.7729
8.6	2.74691
8.61	2.75974
8.62	2.74955
8.63	2.72882
8.64	2.76205
8.65	2.78145
8.66	2.72882
8.67	2.75349
8.68	2.7377
8.69	2.72981
8.7	2.75744
8.71	2.74001
8.72	2.71007
8.73	2.75843
8.74	2.75119
8.75	2.75974
8.76	2.75974
8.77	2.74922
8.78	2.74922
8.79	2.74395
8.8	2.73014
8.81	2.74231
8.82	2.7331
8.83	2.72553
8.84	2.75185
8.85	2.7275
8.86	2.70053
8.87	2.76994
8.88	2.73441
8.89	2.75152
8.9	2.76665
8.91	2.77126
8.92	2.74494
8.93	2.74955
8.94	2.76961
8.95	2.72915
8.96	2.77093
8.97	2.73606
8.98	2.75119
8.99	2.7581
9	2.76435
9.01	2.7581
9.02	2.73244
9.03	2.74658
9.04	2.71961
9.05	2.73869
9.06	2.74428
9.07	2.74593
9.08	2.76205
9.09	2.73408
9.1	2.73836
9.11	2.76764
9.12	2.71764
9.13	2.72816
9.14	2.75908
9.15	2.75152
9.16	2.71731
9.17	2.71928
9.18	2.73573
9.19	2.73704
9.2	2.74198
9.21	2.73244
9.22	2.74264
9.23	2.7706
9.24	2.73704
9.25	2.7377
9.26	2.74264
9.27	2.73672
9.28	2.75251
9.29	2.7604
9.3	2.75415
9.31	2.73672
9.32	2.7331
9.33	2.73935
9.34	2.71369
9.35	2.71303
9.36	2.72948
9.37	2.74066
9.38	2.7456
9.39	2.73803
9.4	2.76501
9.41	2.76007
9.42	2.72356
9.43	2.72849
9.44	2.74362
9.45	2.74099
9.46	2.72093
9.47	2.74889
9.48	2.75711
9.49	2.73474
9.5	2.73112
9.51	2.73935
9.52	2.7456
9.53	2.76468
9.54	2.74494
9.55	2.72454
9.56	2.72718
9.57	2.73047
9.58	2.75119
9.59	2.73408
9.6	2.73244
9.61	2.70843
9.62	2.70875
9.63	2.75908
9.64	2.74494
9.65	2.71895
9.66	2.74658
9.67	2.74165
9.68	2.74527
9.69	2.70941
9.7	2.72948
9.71	2.76961
9.72	2.73112
9.73	2.71829
9.74	2.74001
9.75	2.74033
9.76	2.74658
9.77	2.75152
9.78	2.73968
9.79	2.74593
9.8	2.70612
9.81	2.75876
9.82	2.73441
9.83	2.75316
9.84	2.76961
9.85	2.7558
9.86	2.74494
9.87	2.73639
9.88	2.73408
9.89	2.76237
9.9	2.75941
9.91	2.75777
9.92	2.74626
9.93	2.71698
9.94	2.7627
9.95	2.74297
9.96	2.74955
9.97	2.75481
9.98	2.75514
9.99	2.71797
10	2.72125
10.01	2.73178
10.02	2.74297
10.03	2.74001
10.04	2.72685
10.05	2.73441
10.06	2.72981
10.07	2.76994
10.08	2.74264
10.09	2.70053
10.1	2.71336
10.11	2.71237
10.12	2.7479
10.13	2.73178
10.14	2.73244
10.15	2.71829
10.16	2.74691
10.17	2.73408
10.18	2.73112
10.19	2.73803
10.2	2.71862
10.21	2.7377
10.22	2.74691
10.23	2.74724
10.24	2.75777
10.25	2.73408
10.26	2.7377
10.27	2.73211
10.28	2.72125
10.29	2.7331
10.3	2.71073
10.31	2.73277
10.32	2.79823
10.33	2.7831
10.34	2.74922
10.35	2.76139
10.36	2.79132
10.37	2.7456
10.38	2.74856
10.39	2.73968
10.4	2.73935
10.41	2.76139
10.42	2.74593
10.43	2.75251
10.44	2.7558
10.45	2.7354
10.46	2.73145
10.47	2.7502
10.48	2.76172
10.49	2.7127
10.5	2.70843
10.51	2.77586
10.52	2.74494
10.53	2.72454
10.54	2.72553
10.55	2.72652
10.56	2.73935
10.57	2.74395
10.58	2.7081
10.59	2.7604
10.6	2.73211
10.61	2.70448
10.62	2.73112
10.63	2.74066
10.64	2.7558
10.65	2.73573
10.66	2.73079
10.67	2.71928
10.68	2.73112
10.69	2.72652
10.7	2.74593
10.71	2.70612
10.72	2.74757
10.73	2.7206
10.74	2.73606
10.75	2.7581
10.76	2.72356
10.77	2.7627
10.78	2.73573
10.79	2.76534
10.8	2.73803
10.81	2.7331
10.82	2.75053
10.83	2.71665
10.84	2.75086
10.85	2.72422
10.86	2.73014
10.87	2.75941
10.88	2.75086
10.89	2.75744
10.9	2.73408
10.91	2.70678
10.92	2.72487
10.93	2.77323
10.94	2.75481
10.95	2.72093
10.96	2.72191
10.97	2.74001
10.98	2.7729
10.99	2.73408
11	2.71073
11.01	2.72553
11.02	2.71665
11.03	2.73112
11.04	2.74593
11.05	2.74264
11.06	2.77224
11.07	2.74001
11.08	2.72356
11.09	2.74626
11.1	2.77981
11.11	2.76139
11.12	2.75514
11.13	2.7377
11.14	2.72257
11.15	2.74428
11.16	2.70974
11.17	2.73968
11.18	2.75612
11.19	2.73376
11.2	2.7581
11.21	2.73737
11.22	2.76534
11.23	2.76566
11.24	2.71895
11.25	2.72158
11.26	2.74362
11.27	2.73408
11.28	2.71928
11.29	2.72454
11.3	2.73507
11.31	2.75152
11.32	2.72685
11.33	2.73145
11.34	2.71369
11.35	2.74691
11.36	2.74362
11.37	2.7377
11.38	2.75711
11.39	2.74856
11.4	2.71698
11.41	2.76468
11.42	2.75678
11.43	2.71961
11.44	2.69823
11.45	2.76435
11.46	2.73112
11.47	2.73474
11.48	2.74527
11.49	2.72849
11.5	2.70875
11.51	2.73112
11.52	2.71994
11.53	2.70514
11.54	2.75777
11.55	2.71665
11.56	2.74231
11.57	2.75382
11.58	2.73935
11.59	2.74001
11.6	2.73014
11.61	2.73935
11.62	2.72323
11.63	2.70908
11.64	2.72027
11.65	2.72783
11.66	2.73935
11.67	2.6877
11.68	2.71139
11.69	2.73902
11.7	2.74132
11.71	2.7479
11.72	2.7252
11.73	2.76303
11.74	2.71402
11.75	2.71599
11.76	2.69724
11.77	2.73507
11.78	2.7354
11.79	2.73902
11.8	2.74724
11.81	2.73112
11.82	2.71797
11.83	2.72652
11.84	2.72093
11.85	2.73672
11.86	2.74922
11.87	2.75053
11.88	2.7354
11.89	2.75547
11.9	2.73902
11.91	2.6877
11.92	2.69823
11.93	2.74362
11.94	2.73968
11.95	2.75941
11.96	2.74033
11.97	2.7502
11.98	2.71237
11.99	2.70678
12	2.7229
12.01	2.74165
12.02	2.72224
12.03	2.74461
12.04	2.70481
12.05	2.72783
12.06	2.73737
12.07	2.72915
12.08	2.7025
12.09	2.75251
12.1	2.73047
12.11	2.72027
12.12	2.73014
12.13	2.71928
12.14	2.72257
12.15	2.71106
12.16	2.73376
12.17	2.7127
12.18	2.74691
12.19	2.7456
12.2	2.72718
12.21	2.72158
12.22	2.75251
12.23	2.73803
12.24	2.74264
12.25	2.75119
12.26	2.72553
12.27	2.70382
12.28	2.73902
12.29	2.73079
12.3	2.74691
12.31	2.73836
12.32	2.72422
12.33	2.74198
12.34	2.70645
12.35	2.69033
12.36	2.74066
12.37	2.73836
12.38	2.74066
12.39	2.72849
12.4	2.73079
12.41	2.72948
12.42	2.7104
12.43	2.71073
12.44	2.73935
12.45	2.71303
12.46	2.74626
12.47	2.71764
12.48	2.73573
12.49	2.70481
12.5	2.78409
12.51	2.74856
12.52	2.72487
12.53	2.7354
12.54	2.71665
12.55	2.71895
12.56	2.74461
12.57	2.77553
12.58	2.74494
12.59	2.72323
12.6	2.73836
12.61	2.75349
12.62	2.72323
12.63	2.71369
12.64	2.69
12.65	2.74823
12.66	2.75547
12.67	2.73639
12.68	2.73343
12.69	2.70514
12.7	2.75053
12.71	2.70218
12.72	2.70612
12.73	2.73047
12.74	2.70481
12.75	2.71303
12.76	2.72718
12.77	2.73606
12.78	2.77487
12.79	2.75316
12.8	2.73047
12.81	2.7479
12.82	2.72356
12.83	2.73902
12.84	2.77619
12.85	2.74757
12.86	2.71566
12.87	2.73869
12.88	2.74856
12.89	2.7354
12.9	2.70053
12.91	2.70546
12.92	2.72981
12.93	2.75218
12.94	2.71632
12.95	2.70777
12.96	2.73737
12.97	2.7558
12.98	2.7479
12.99	2.7081
13	2.71303
13.01	2.73343
13.02	2.74593
13.03	2.72389
13.04	2.7025
13.05	2.73474
13.06	2.70777
13.07	2.72257
13.08	2.74033
13.09	2.7354
13.1	2.71303
13.11	2.70678
13.12	2.70974
13.13	2.71566
13.14	2.71731
13.15	2.74527
13.16	2.72685
13.17	2.7081
13.18	2.74626
13.19	2.715
13.2	2.72454
13.21	2.7081
13.22	2.71731
13.23	2.72027
13.24	2.74461
13.25	2.74395
13.26	2.72191
13.27	2.72191
13.28	2.72224
13.29	2.72389
13.3	2.73277
13.31	2.69165
13.32	2.72816
13.33	2.72882
13.34	2.7331
13.35	2.72619
13.36	2.72981
13.37	2.72158
13.38	2.72849
13.39	2.71303
13.4	2.71829
13.41	2.71237
13.42	2.71369
13.43	2.6956
13.44	2.71369
13.45	2.72356
13.46	2.7002
13.47	2.74033
13.48	2.72948
13.49	2.73441
13.5	2.72125
13.51	2.7331
13.52	2.69428
13.53	2.73079
13.54	2.74033
13.55	2.6979
13.56	2.72816
13.57	2.72948
13.58	2.66928
13.59	2.71171
13.6	2.73507
13.61	2.7275
13.62	2.73704
13.63	2.7104
13.64	2.72849
13.65	2.76369
13.66	2.72849
13.67	2.715
13.68	2.73704
13.69	2.72652
13.7	2.72849
13.71	2.72981
13.72	2.70843
13.73	2.6979
13.74	2.70546
13.75	2.73935
13.76	2.72454
13.77	2.7025
13.78	2.73902
13.79	2.73277
13.8	2.72323
13.81	2.71829
13.82	2.72422
13.83	2.72027
13.84	2.70514
13.85	2.7252
13.86	2.69527
13.87	2.71895
13.88	2.69889
13.89	2.71764
13.9	2.72783
13.91	2.71994
13.92	2.7127
13.93	2.72553
13.94	2.72422
13.95	2.73178
13.96	2.71139
13.97	2.72586
13.98	2.71204
13.99	2.68112
14	2.71994
14.01	2.70316
14.02	2.70974
14.03	2.73178
14.04	2.70218
14.05	2.71862
14.06	2.73935
14.07	2.71829
14.08	2.73244
14.09	2.71829
14.1	2.72158
14.11	2.715
14.12	2.72027
14.13	2.72981
14.14	2.73145
14.15	2.72816
14.16	2.71566
14.17	2.71303
14.18	2.70777
14.19	2.71632
14.2	2.7252
14.21	2.69
14.22	2.72783
14.23	2.70908
14.24	2.69494
14.25	2.70711
14.26	2.7252
14.27	2.73639
14.28	2.69362
14.29	2.70777
14.3	2.74856
14.31	2.76928
14.32	2.72586
14.33	2.72882
14.34	2.72718
14.35	2.74066
14.36	2.71797
14.37	2.72882
14.38	2.70316
14.39	2.71204
14.4	2.73869
14.41	2.72454
14.42	2.71961
14.43	2.71106
14.44	2.69099
14.45	2.73047
14.46	2.73178
14.47	2.74066
14.48	2.72915
14.49	2.70086
14.5	2.71994
14.51	2.72027
14.52	2.74329
14.53	2.72619
14.54	2.70283
14.55	2.70514
14.56	2.70514
14.57	2.7104
14.58	2.71171
14.59	2.73639
14.6	2.70086
14.61	2.75283
14.62	2.72356
14.63	2.71994
14.64	2.70546
14.65	2.72356
14.66	2.7002
14.67	2.71171
14.68	2.73803
14.69	2.71731
14.7	2.73343
14.71	2.72652
14.72	2.71764
14.73	2.69691
14.74	2.70843
14.75	2.71402
14.76	2.74132
14.77	2.75349
14.78	2.74329
14.79	2.73408
14.8	2.69954
14.81	2.6979
14.82	2.70843
14.83	2.72027
14.84	2.72849
14.85	2.69264
14.86	2.67553
14.87	2.70645
14.88	2.74691
14.89	2.7377
14.9	2.70579
14.91	2.71336
14.92	2.74297
14.93	2.74099
14.94	2.72389
14.95	2.73178
14.96	2.69296
14.97	2.73507
14.98	2.72422
14.99	2.71204
15	2.70908
15.01	2.7229
15.02	2.73803
15.03	2.70612
15.04	2.71731
15.05	2.73145
15.06	2.67586
15.07	2.7081
15.08	2.71533
15.09	2.73145
15.1	2.72093
15.11	2.71533
15.12	2.69198
15.13	2.7252
15.14	2.75876
15.15	2.71533
15.16	2.72257
15.17	2.72652
15.18	2.72191
15.19	2.74329
15.2	2.74231
15.21	2.74889
15.22	2.73047
15.23	2.73803
15.24	2.70185
15.25	2.70875
15.26	2.71369
15.27	2.71829
15.28	2.69823
15.29	2.71665
15.3	2.71764
15.31	2.71566
15.32	2.71468
15.33	2.70481
15.34	2.71106
15.35	2.71435
15.36	2.71139
15.37	2.70678
15.38	2.73935
15.39	2.72849
15.4	2.6706
15.41	2.70448
15.42	2.71665
15.43	2.70744
15.44	2.7275
15.45	2.71764
15.46	2.7229
15.47	2.71928
15.48	2.68902
15.49	2.6956
15.5	2.70481
15.51	2.68869
15.52	2.69592
15.53	2.74527
15.54	2.72257
15.55	2.7229
15.56	2.72619
15.57	2.7229
15.58	2.715
15.59	2.75547
15.6	2.72718
15.61	2.71435
15.62	2.74593
15.63	2.75678
15.64	2.72158
15.65	2.71599
15.66	2.70316
15.67	2.73277
15.68	2.72356
15.69	2.73507
15.7	2.7275
15.71	2.72586
15.72	2.71468
15.73	2.70908
15.74	2.72981
15.75	2.69592
15.76	2.71895
15.77	2.70711
15.78	2.70579
15.79	2.72257
15.8	2.69296
15.81	2.71829
15.82	2.74264
15.83	2.74033
15.84	2.71303
15.85	2.71106
15.86	2.72191
15.87	2.72027
15.88	2.69461
15.89	2.69461
15.9	2.72093
15.91	2.715
15.92	2.71073
15.93	2.72356
15.94	2.72948
15.95	2.72915
15.96	2.72093
15.97	2.72125
15.98	2.7206
15.99	2.70941
16	2.70218
16.01	2.68737
16.02	2.72389
16.03	2.70777
16.04	2.69099
16.05	2.71369
16.06	2.73935
16.07	2.67981
16.08	2.70283
16.09	2.69033
16.1	2.70711
16.11	2.70711
16.12	2.68277
16.13	2.69033
16.14	2.7354
16.15	2.73244
16.16	2.74066
16.17	2.70218
16.18	2.70086
16.19	2.74198
16.2	2.7331
16.21	2.73968
16.22	2.70711
16.23	2.72158
16.24	2.70908
16.25	2.72652
16.26	2.7104
16.27	2.71204
16.28	2.73672
16.29	2.7252
16.3	2.68836
16.31	2.66434
16.32	2.715
16.33	2.72027
16.34	2.70908
16.35	2.71731
16.36	2.69
16.37	2.6775
16.38	2.69954
16.39	2.71106
16.4	2.69823
16.41	2.74264
16.42	2.74889
16.43	2.7275
16.44	2.71533
16.45	2.73408
16.46	2.71468
16.47	2.69856
16.48	2.69823
16.49	2.72422
16.5	2.73441
16.51	2.7229
16.52	2.71566
16.53	2.7002
16.54	2.715
16.55	2.72257
16.56	2.70218
16.57	2.6877
16.58	2.75415
16.59	2.70349
16.6	2.68836
16.61	2.71797
16.62	2.71566
16.63	2.71566
16.64	2.70119
16.65	2.72948
16.66	2.73047
16.67	2.72685
16.68	2.73507
16.69	2.71139
16.7	2.67685
16.71	2.70119
16.72	2.71829
16.73	2.71468
16.74	2.74001
16.75	2.72323
16.76	2.70415
16.77	2.70152
16.78	2.70119
16.79	2.70843
16.8	2.69132
16.81	2.70514
16.82	2.70448
16.83	2.71698
16.84	2.74658
16.85	2.76007
16.86	2.72586
16.87	2.71139
16.88	2.72619
16.89	2.71566
16.9	2.75251
16.91	2.69987
16.92	2.69362
16.93	2.71895
16.94	2.70941
16.95	2.67191
16.96	2.72685
16.97	2.72125
16.98	2.72257
16.99	2.73079
17	2.73079
17.01	2.72487
17.02	2.73902
17.03	2.70744
17.04	2.71632
17.05	2.73573
17.06	2.73935
17.07	2.69592
17.08	2.74889
17.09	2.69921
17.1	2.72125
17.11	2.71994
17.12	2.70053
17.13	2.73803
17.14	2.7002
17.15	2.72125
17.16	2.73869
17.17	2.72882
17.18	2.72323
17.19	2.71731
17.2	2.6956
17.21	2.67586
17.22	2.70678
17.23	2.69757
17.24	2.70218
17.25	2.70053
17.26	2.72356
17.27	2.72685
17.28	2.74922
17.29	2.71632
17.3	2.74922
17.31	2.72093
17.32	2.72849
17.33	2.72125
17.34	2.7002
17.35	2.70612
17.36	2.68507
17.37	2.73079
17.38	2.74691
17.39	2.71402
17.4	2.69823
17.41	2.70514
17.42	2.72882
17.43	2.74362
17.44	2.75843
17.45	2.71928
17.46	2.71698
17.47	2.70843
17.48	2.70185
17.49	2.7252
17.5	2.69724
17.51	2.72849
17.52	2.72191
17.53	2.72685
17.54	2.71994
17.55	2.70185
17.56	2.70053
17.57	2.6979
17.58	2.715
17.59	2.72882
17.6	2.71139
17.61	2.71237
17.62	2.70086
17.63	2.72685
17.64	2.71994
17.65	2.70579
17.66	2.71435
17.67	2.72356
17.68	2.72158
17.69	2.70152
17.7	2.73606
17.71	2.71533
17.72	2.70941
17.73	2.72783
17.74	2.72718
17.75	2.7275
17.76	2.71829
17.77	2.7206
17.78	2.72323
17.79	2.7331
17.8	2.73277
17.81	2.69954
17.82	2.70875
17.83	2.75119
17.84	2.70152
17.85	2.71435
17.86	2.72158
17.87	2.71435
17.88	2.73408
17.89	2.72586
17.9	2.71303
17.91	2.70744
17.92	2.71402
17.93	2.7377
17.94	2.72191
17.95	2.76073
17.96	2.7127
17.97	2.69
17.98	2.6854
17.99	2.68342
18	2.72981
18.01	2.70086
18.02	2.72619
18.03	2.71237
18.04	2.6956
18.05	2.68935
18.06	2.69165
18.07	2.72422
18.08	2.69889
18.09	2.715
18.1	2.73606
18.11	2.715
18.12	2.69395
18.13	2.70218
18.14	2.73606
18.15	2.72981
18.16	2.7331
18.17	2.74658
18.18	2.73211
18.19	2.69757
18.2	2.72158
18.21	2.70711
18.22	2.73672
18.23	2.73112
18.24	2.71862
18.25	2.73441
18.26	2.72389
18.27	2.69757
18.28	2.73211
18.29	2.71204
18.3	2.70744
18.31	2.72454
18.32	2.71073
18.33	2.69625
18.34	2.69461
18.35	2.70744
18.36	2.71797
18.37	2.71895
18.38	2.71402
18.39	2.71435
18.4	2.70941
18.41	2.70974
18.42	2.66204
18.43	2.69625
18.44	2.69724
18.45	2.70546
18.46	2.67849
18.47	2.72027
18.48	2.73836
18.49	2.73606
18.5	2.72158
18.51	2.75678
18.52	2.71369
18.53	2.7127
18.54	2.73573
18.55	2.72915
18.56	2.71665
18.57	2.73935
18.58	2.75645
18.59	2.73836
18.6	2.69494
18.61	2.67882
18.62	2.68211
18.63	2.70744
18.64	2.73737
18.65	2.72981
18.66	2.70941
18.67	2.69921
18.68	2.68639
18.69	2.70349
18.7	2.69987
18.71	2.70415
18.72	2.74626
18.73	2.71632
18.74	2.69691
18.75	2.72454
18.76	2.69987
18.77	2.71369
18.78	2.73244
18.79	2.69724
18.8	2.70579
18.81	2.70185
18.82	2.70843
18.83	2.72323
18.84	2.71336
18.85	2.71533
18.86	2.70843
18.87	2.71764
18.88	2.68606
18.89	2.69264
18.9	2.67882
18.91	2.68639
18.92	2.69362
18.93	2.70349
18.94	2.74823
18.95	2.73014
18.96	2.71698
18.97	2.72422
18.98	2.72849
18.99	2.73441
19	2.74362
19.01	2.72027
19.02	2.71533
19.03	2.72915
19.04	2.68671
19.05	2.68079
19.06	2.69527
19.07	2.71698
19.08	2.72027
19.09	2.72487
19.1	2.70579
19.11	2.72685
19.12	2.71895
19.13	2.70843
19.14	2.7252
19.15	2.72356
19.16	2.7377
19.17	2.69856
19.18	2.69823
19.19	2.69066
19.2	2.73737
19.21	2.74231
19.22	2.73145
19.23	2.70843
19.24	2.71829
19.25	2.74264
19.26	2.72191
19.27	2.70349
19.28	2.73079
19.29	2.77389
19.3	2.70744
19.31	2.72158
19.32	2.73737
19.33	2.68145
19.34	2.69461
19.35	2.71994
19.36	2.70349
19.37	2.71007
19.38	2.7331
19.39	2.74066
19.4	2.7252
19.41	2.71303
19.42	2.7104
19.43	2.70119
19.44	2.71599
19.45	2.73145
19.46	2.70481
19.47	2.7275
19.48	2.69
19.49	2.7002
19.5	2.69987
19.51	2.71369
19.52	2.68441
19.53	2.69329
19.54	2.69757
19.55	2.72553
19.56	2.70645
19.57	2.72323
19.58	2.73079
19.59	2.67586
19.6	2.71303
19.61	2.7025
19.62	2.7002
19.63	2.65086
19.64	2.71007
19.65	2.70579
19.66	2.70908
19.67	2.72685
19.68	2.74658
19.69	2.72323
19.7	2.7377
19.71	2.75152
19.72	2.72454
19.73	2.73902
19.74	2.73902
19.75	2.74264
19.76	2.69724
19.77	2.70908
19.78	2.69494
19.79	2.71237
19.8	2.70777
19.81	2.73178
19.82	2.68902
19.83	2.65612
19.84	2.6604
19.85	2.70744
19.86	2.70645
19.87	2.68211
19.88	2.6956
19.89	2.70283
19.9	2.73507
19.91	2.73014
19.92	2.69625
19.93	2.71369
19.94	2.7229
19.95	2.71533
19.96	2.6979
19.97	2.69527
19.98	2.68606
19.99	2.70875
20	2.70711
20.01	2.67356
20.02	2.69987
20.03	2.70481
20.04	2.69527
20.05	2.69461
20.06	2.70579
20.07	2.7331
20.08	2.69494
20.09	2.6752
20.1	2.68606
20.11	2.67158
20.12	2.68244
20.13	2.69527
20.14	2.69066
20.15	2.71106
20.16	2.67717
20.17	2.65777
20.18	2.71237
20.19	2.67981
20.2	2.69954
20.21	2.70777
20.22	2.72125
20.23	2.70053
20.24	2.65941
20.25	2.68211
20.26	2.68967
20.27	2.72158
20.28	2.75218
20.29	2.71764
20.3	2.68836
20.31	2.70448
20.32	2.71303
20.33	2.73343
20.34	2.66731
20.35	2.69757
20.36	2.72915
20.37	2.69592
20.38	2.71237
20.39	2.71468
20.4	2.71599
20.41	2.70678
20.42	2.71106
20.43	2.73014
20.44	2.72816
20.45	2.72915
20.46	2.70777
20.47	2.69362
20.48	2.68902
20.49	2.67586
20.5	2.69856
20.51	2.7127
20.52	2.69066
20.53	2.68507
20.54	2.71007
20.55	2.70185
20.56	2.74264
20.57	2.73507
20.58	2.72487
20.59	2.69625
20.6	2.72685
20.61	2.71204
20.62	2.70744
20.63	2.69625
20.64	2.73836
20.65	2.69921
20.66	2.70481
20.67	2.72487
20.68	2.71829
20.69	2.69494
20.7	2.70908
20.71	2.7275
20.72	2.7104
20.73	2.7002
20.74	2.67783
20.75	2.69987
20.76	2.70579
20.77	2.68671
20.78	2.72027
20.79	2.68803
20.8	2.71139
20.81	2.71665
20.82	2.70908
20.83	2.73145
20.84	2.73145
20.85	2.71895
20.86	2.71303
20.87	2.72093
20.88	2.68408
20.89	2.6729
20.9	2.72718
20.91	2.72652
20.92	2.70908
20.93	2.73112
20.94	2.6956
20.95	2.68178
20.96	2.69856
20.97	2.70185
20.98	2.68375
20.99	2.70612
21	2.73211
21.01	2.72356
21.02	2.70152
21.03	2.69362
21.04	2.71435
21.05	2.71961
21.06	2.7229
21.07	2.68178
21.08	2.69724
21.09	2.69395
21.1	2.7252
21.11	2.70612
21.12	2.66895
21.13	2.69264
21.14	2.70612
21.15	2.68079
21.16	2.68737
21.17	2.67717
21.18	2.71533
21.19	2.71073
21.2	2.7025
21.21	2.71862
21.22	2.71994
21.23	2.71237
21.24	2.70119
21.25	2.70283
21.26	2.71698
21.27	2.70053
21.28	2.70119
21.29	2.66829
21.3	2.715
21.31	2.72125
21.32	2.715
21.33	2.7127
21.34	2.69889
21.35	2.6956
21.36	2.71435
21.37	2.66796
21.38	2.69033
21.39	2.69231
21.4	2.70415
21.41	2.71468
21.42	2.71369
21.43	2.71731
21.44	2.70316
21.45	2.71204
21.46	2.70744
21.47	2.68836
21.48	2.70448
21.49	2.74297
21.5	2.71303
21.51	2.68441
21.52	2.6979
21.53	2.74001
21.54	2.72586
21.55	2.72191
21.56	2.70448
21.57	2.70579
21.58	2.70415
21.59	2.68046
21.6	2.67915
21.61	2.68408
21.62	2.66994
21.63	2.69724
21.64	2.70382
21.65	2.6979
21.66	2.69329
21.67	2.71204
21.68	2.71533
21.69	2.69099
21.7	2.65974
21.71	2.68145
21.72	2.69954
21.73	2.70514
21.74	2.68902
21.75	2.68244
21.76	2.68474
21.77	2.72027
21.78	2.71632
21.79	2.67487
21.8	2.70678
21.81	2.7081
21.82	2.71632
21.83	2.69362
21.84	2.69231
21.85	2.70711
21.86	2.69362
21.87	2.69625
21.88	2.72125
21.89	2.74724
21.9	2.72356
21.91	2.71895
21.92	2.69658
21.93	2.70514
21.94	2.69198
21.95	2.69921
21.96	2.72389
21.97	2.72718
21.98	2.70579
21.99	2.70283
22	2.72323
22.01	2.69592
22.02	2.69757
22.03	2.70711
22.04	2.69395
22.05	2.67224
22.06	2.72553
22.07	2.72422
22.08	2.72454
22.09	2.71139
22.1	2.74001
22.11	2.6956
22.12	2.71632
22.13	2.70843
22.14	2.67652
22.15	2.68639
22.16	2.69395
22.17	2.70678
22.18	2.72027
22.19	2.68836
22.2	2.70349
22.21	2.69132
22.22	2.73047
22.23	2.69527
22.24	2.69889
22.25	2.67323
22.26	2.70843
22.27	2.69625
22.28	2.70744
22.29	2.70119
22.3	2.70711
22.31	2.70678
22.32	2.71566
22.33	2.6979
22.34	2.67224
22.35	2.67652
22.36	2.69231
22.37	2.70579
22.38	2.72191
22.39	2.70941
22.4	2.73112
22.41	2.70843
22.42	2.69527
22.43	2.71204
22.44	2.70546
22.45	2.73441
22.46	2.73244
22.47	2.70546
22.48	2.69362
22.49	2.70579
22.5	2.70185
22.51	2.70415
22.52	2.71204
22.53	2.69428
22.54	2.73737
22.55	2.6854
22.56	2.71336
22.57	2.72158
22.58	2.7275
22.59	2.68408
22.6	2.73474
22.61	2.69
22.62	2.71336
22.63	2.71336
22.64	2.70481
22.65	2.70875
22.66	2.71829
22.67	2.71468
22.68	2.69757
22.69	2.70185
22.7	2.70744
22.71	2.715
22.72	2.71862
22.73	2.66665
22.74	2.69724
22.75	2.70777
22.76	2.70514
22.77	2.70645
22.78	2.73211
22.79	2.70546
22.8	2.69132
22.81	2.69296
22.82	2.70185
22.83	2.74889
22.84	2.75349
22.85	2.75481
22.86	2.75053
22.87	2.71369
22.88	2.68935
22.89	2.72125
22.9	2.7025
22.91	2.68935
22.92	2.69823
22.93	2.69428
22.94	2.68408
22.95	2.69461
22.96	2.73606
22.97	2.715
22.98	2.70678
22.99	2.69395
23	2.71303
23.01	2.71764
23.02	2.73408
23.03	2.69
23.04	2.71369
23.05	2.72915
23.06	2.70941
23.07	2.72685
23.08	2.71533
23.09	2.72323
23.1	2.71336
23.11	2.71007
23.12	2.71303
23.13	2.6956
23.14	2.7104
23.15	2.69921
23.16	2.69889
23.17	2.72323
23.18	2.72652
23.19	2.69625
23.2	2.69987
23.21	2.70316
23.22	2.68441
23.23	2.69987
23.24	2.70546
23.25	2.67586
23.26	2.69527
23.27	2.69724
23.28	2.72323
23.29	2.68639
23.3	2.67125
23.31	2.7275
23.32	2.71237
23.33	2.71533
23.34	2.70119
23.35	2.68671
23.36	2.67553
23.37	2.68112
23.38	2.69132
23.39	2.70086
23.4	2.67619
23.41	2.71303
23.42	2.72981
23.43	2.70843
23.44	2.71073
23.45	2.71468
23.46	2.69592
23.47	2.72323
23.48	2.73014
23.49	2.70546
23.5	2.69231
23.51	2.69625
23.52	2.6979
23.53	2.67487
23.54	2.69889
23.55	2.71073
23.56	2.69625
23.57	2.68079
23.58	2.67224
23.59	2.67323
23.6	2.69461
23.61	2.69856
23.62	2.69625
23.63	2.69691
23.64	2.69329
23.65	2.71994
23.66	2.68935
23.67	2.69428
23.68	2.71073
23.69	2.71237
23.7	2.71632
23.71	2.70382
23.72	2.70086
23.73	2.70974
23.74	2.71994
23.75	2.72849
23.76	2.70843
23.77	2.6831
23.78	2.69494
23.79	2.72652
23.8	2.7081
23.81	2.70086
23.82	2.69987
23.83	2.68737
23.84	2.70119
23.85	2.71566
23.86	2.71106
23.87	2.69329
23.88	2.7081
23.89	2.71764
23.9	2.67257
23.91	2.67191
23.92	2.71303
23.93	2.73079
23.94	2.70053
23.95	2.69428
23.96	2.70119
23.97	2.71007
23.98	2.66928
23.99	2.70514
24	2.68112
24.01	2.67553
24.02	2.67356
24.03	2.68342
24.04	2.67948
24.05	2.67816
24.06	2.70875
24.07	2.68935
24.08	2.67487
24.09	2.67586
24.1	2.74001
24.11	2.72356
24.12	2.67816
24.13	2.67027
24.14	2.67849
24.15	2.67981
24.16	2.70579
24.17	2.70053
24.18	2.70448
24.19	2.68145
24.2	2.69296
24.21	2.7002
24.22	2.67487
24.23	2.70152
24.24	2.68639
24.25	2.70744
24.26	2.71533
24.27	2.72125
24.28	2.73047
24.29	2.68342
24.3	2.67915
24.31	2.71862
24.32	2.73639
24.33	2.69198
24.34	2.71073
24.35	2.72948
24.36	2.69921
24.37	2.67586
24.38	2.68704
24.39	2.70119
24.4	2.70481
24.41	2.73014
24.42	2.70053
24.43	2.68869
24.44	2.67948
24.45	2.71171
24.46	2.71961
24.47	2.73968
24.48	2.72619
24.49	2.69264
24.5	2.6877
24.51	2.71073
24.52	2.70481
24.53	2.71961
24.54	2.68737
24.55	2.73145
24.56	2.69132
24.57	2.65481
24.58	2.65546
24.59	2.67092
24.6	2.70908
24.61	2.69625
24.62	2.69296
24.63	2.71665
24.64	2.70711
24.65	2.70185
24.66	2.69724
24.67	2.67027
24.68	2.71369
24.69	2.68671
24.7	2.72158
24.71	2.67553
24.72	2.66402
24.73	2.68474
24.74	2.71204
24.75	2.72027
24.76	2.66434
24.77	2.69757
24.78	2.69921
24.79	2.70843
24.8	2.70514
24.81	2.70777
24.82	2.6979
24.83	2.71829
24.84	2.70316
24.85	2.72816
24.86	2.71468
24.87	2.72224
24.88	2.68606
24.89	2.6831
24.9	2.66336
24.91	2.66369
24.92	2.70875
24.93	2.70908
24.94	2.71731
24.95	2.72619
24.96	2.70448
24.97	2.66763
24.98	2.69132
24.99	2.7081
25	2.6979
25.01	2.67783
25.02	2.69658
25.03	2.71468
25.04	2.70053
25.05	2.70053
25.06	2.70645
25.07	2.70579
25.08	2.68474
25.09	2.68244
25.1	2.7081
25.11	2.74823
25.12	2.72553
25.13	2.71237
25.14	2.69691
25.15	2.70086
25.16	2.72093
25.17	2.70152
25.18	2.68211
25.19	2.69757
25.2	2.6831
25.21	2.67849
25.22	2.73737
25.23	2.70119
25.24	2.67257
25.25	2.69428
25.26	2.71139
25.27	2.71237
25.28	2.72487
25.29	2.71566
25.3	2.70514
25.31	2.70645
25.32	2.72389
25.33	2.70415
25.34	2.69231
25.35	2.69856
25.36	2.70612
25.37	2.72191
25.38	2.7002
25.39	2.71862
25.4	2.69099
25.41	2.70941
25.42	2.71336
25.43	2.69757
25.44	2.7025
25.45	2.6775
25.46	2.68277
25.47	2.68836
25.48	2.67717
25.49	2.69691
25.5	2.70316
25.51	2.71435
25.52	2.7002
25.53	2.68869
25.54	2.69165
25.55	2.69198
25.56	2.69921
25.57	2.73408
25.58	2.72027
25.59	2.70448
25.6	2.69724
25.61	2.67685
25.62	2.70185
25.63	2.7206
25.64	2.72981
25.65	2.73145
25.66	2.71566
25.67	2.6706
25.68	2.71336
25.69	2.69066
25.7	2.68606
25.71	2.70678
25.72	2.7354
25.73	2.71731
25.74	2.69033
25.75	2.69165
25.76	2.72718
25.77	2.70744
25.78	2.69461
25.79	2.73145
25.8	2.69165
25.81	2.6956
25.82	2.70481
25.83	2.71369
25.84	2.67454
25.85	2.66796
25.86	2.65809
25.87	2.6604
25.88	2.72685
25.89	2.70711
25.9	2.69099
25.91	2.66895
25.92	2.67487
25.93	2.69856
25.94	2.70711
25.95	2.6979
25.96	2.69
25.97	2.70974
25.98	2.715
25.99	2.72422
26	2.65316
26.01	2.70283
26.02	2.72487
26.03	2.69494
26.04	2.69264
26.05	2.69856
26.06	2.69823
26.07	2.69362
26.08	2.70908
26.09	2.69428
26.1	2.67717
26.11	2.70218
26.12	2.69066
26.13	2.70875
26.14	2.70908
26.15	2.70875
26.16	2.67323
26.17	2.68375
26.18	2.69724
26.19	2.71665
26.2	2.72553
26.21	2.70481
26.22	2.69592
26.23	2.71139
26.24	2.71731
26.25	2.71204
26.26	2.69428
26.27	2.72356
26.28	2.6854
26.29	2.715
26.3	2.72158
26.31	2.68935
26.32	2.6877
26.33	2.6775
26.34	2.70744
26.35	2.7081
26.36	2.70514
26.37	2.69658
26.38	2.68671
26.39	2.69921
26.4	2.68737
26.41	2.69264
26.42	2.68737
26.43	2.70218
26.44	2.70382
26.45	2.69954
26.46	2.68441
26.47	2.7104
26.48	2.70218
26.49	2.72027
26.5	2.68211
26.51	2.69691
26.52	2.71007
26.53	2.72191
26.54	2.69428
26.55	2.70316
26.56	2.68704
26.57	2.67454
26.58	2.69296
26.59	2.66994
26.6	2.69066
26.61	2.69264
26.62	2.6775
26.63	2.6979
26.64	2.7206
26.65	2.68869
26.66	2.68737
26.67	2.69231
26.68	2.67586
26.69	2.68869
26.7	2.68112
26.71	2.71007
26.72	2.70481
26.73	2.7331
26.74	2.70119
26.75	2.70415
26.76	2.6854
26.77	2.71369
26.78	2.7104
26.79	2.69527
26.8	2.71106
26.81	2.69165
26.82	2.70612
26.83	2.72586
26.84	2.70086
26.85	2.70185
26.86	2.715
26.87	2.7002
26.88	2.70481
26.89	2.70711
26.9	2.70678
26.91	2.68639
26.92	2.71731
26.93	2.72454
26.94	2.68803
26.95	2.7206
26.96	2.73277
26.97	2.71303
26.98	2.71106
26.99	2.69231
27	2.70875
27.01	2.70283
27.02	2.70349
27.03	2.70382
27.04	2.68145
27.05	2.71139
27.06	2.6877
27.07	2.7252
27.08	2.71468
27.09	2.68573
27.1	2.68935
27.11	2.69856
27.12	2.69527
27.13	2.69395
27.14	2.70448
27.15	2.73408
27.16	2.70612
27.17	2.69428
27.18	2.70777
27.19	2.68277
27.2	2.70086
27.21	2.7081
27.22	2.72685
27.23	2.68935
27.24	2.69954
27.25	2.6979
27.26	2.70843
27.27	2.69954
27.28	2.68935
27.29	2.70415
27.3	2.70711
27.31	2.70514
27.32	2.70086
27.33	2.71797
27.34	2.70316
27.35	2.67882
27.36	2.67915
27.37	2.69823
27.38	2.68277
27.39	2.66961
27.4	2.70349
27.41	2.73836
27.42	2.73672
27.43	2.69658
27.44	2.70185
27.45	2.7081
27.46	2.69494
27.47	2.68967
27.48	2.68902
27.49	2.71829
27.5	2.75974
27.51	2.715
27.52	2.68507
27.53	2.69856
27.54	2.7104
27.55	2.70546
27.56	2.70843
27.57	2.70152
27.58	2.69691
27.59	2.71139
27.6	2.70283
27.61	2.68737
27.62	2.6831
27.63	2.70645
27.64	2.72125
27.65	2.71402
27.66	2.70185
27.67	2.69889
27.68	2.68573
27.69	2.6604
27.7	2.70941
27.71	2.67586
27.72	2.68474
27.73	2.67619
27.74	2.68079
27.75	2.69296
27.76	2.68211
27.77	2.72652
27.78	2.69954
27.79	2.71369
27.8	2.70185
27.81	2.66073
27.82	2.68375
27.83	2.70185
27.84	2.68967
27.85	2.7206
27.86	2.71106
27.87	2.69099
27.88	2.67717
27.89	2.68902
27.9	2.70382
27.91	2.69428
27.92	2.72257
27.93	2.68244
27.94	2.69296
27.95	2.7104
27.96	2.72027
27.97	2.71303
27.98	2.69461
27.99	2.71862
28	2.68244
28.01	2.71171
28.02	2.7127
28.03	2.69
28.04	2.67915
28.05	2.6956
28.06	2.69099
28.07	2.69658
28.08	2.68441
28.09	2.69066
28.1	2.71007
28.11	2.71764
28.12	2.69625
28.13	2.70645
28.14	2.6956
28.15	2.70711
28.16	2.72191
28.17	2.69198
28.18	2.71566
28.19	2.69889
28.2	2.67586
28.21	2.68935
28.22	2.69231
28.23	2.70875
28.24	2.7104
28.25	2.67981
28.26	2.69889
28.27	2.69856
28.28	2.71829
28.29	2.70086
28.3	2.7025
28.31	2.69099
28.32	2.71829
28.33	2.69658
28.34	2.6956
28.35	2.6979
28.36	2.70448
28.37	2.67685
28.38	2.69724
28.39	2.68112
28.4	2.71961
28.41	2.70711
28.42	2.69033
28.43	2.70744
28.44	2.69527
28.45	2.70974
28.46	2.71797
28.47	2.70283
28.48	2.69033
28.49	2.71632
28.5	2.71106
28.51	2.66402
28.52	2.70514
28.53	2.68342
28.54	2.71171
28.55	2.69527
28.56	2.72093
28.57	2.68869
28.58	2.70448
28.59	2.71994
28.6	2.69231
28.61	2.67981
28.62	2.69724
28.63	2.71928
28.64	2.69921
28.65	2.69987
28.66	2.70875
28.67	2.69395
28.68	2.6956
28.69	2.70908
28.7	2.68803
28.71	2.68737
28.72	2.68639
28.73	2.70218
28.74	2.71829
28.75	2.68869
28.76	2.7002
28.77	2.6729
28.78	2.72454
28.79	2.70546
28.8	2.70382
28.81	2.74066
28.82	2.68671
28.83	2.70185
28.84	2.70711
28.85	2.70382
28.86	2.7127
28.87	2.67454
28.88	2.68573
28.89	2.69362
28.9	2.73343
28.91	2.70119
28.92	2.70744
28.93	2.71073
28.94	2.69856
28.95	2.70283
28.96	2.69592
28.97	2.67323
28.98	2.70185
28.99	2.73277
29	2.72027
29.01	2.73277
29.02	2.73112
29.03	2.71402
29.04	2.71106
29.05	2.7081
29.06	2.71994
29.07	2.69
29.08	2.69494
29.09	2.71139
29.1	2.70546
29.11	2.70908
29.12	2.69198
29.13	2.70053
29.14	2.70546
29.15	2.69494
29.16	2.71402
29.17	2.68474
29.18	2.68474
29.19	2.66961
29.2	2.69889
29.21	2.71961
29.22	2.71928
29.23	2.71829
29.24	2.70119
29.25	2.70481
29.26	2.66336
29.27	2.73244
29.28	2.70152
29.29	2.69296
29.3	2.71566
29.31	2.69428
29.32	2.70744
29.33	2.71731
29.34	2.69527
29.35	2.69165
29.36	2.68079
29.37	2.67553
29.38	2.69132
29.39	2.70744
29.4	2.68112
29.41	2.69823
29.42	2.70941
29.43	2.67125
29.44	2.70546
29.45	2.69264
29.46	2.67191
29.47	2.71468
29.48	2.7104
29.49	2.7025
29.5	2.69099
29.51	2.71106
29.52	2.71402
29.53	2.70218
29.54	2.73507
29.55	2.68474
29.56	2.70645
29.57	2.70678
29.58	2.72323
29.59	2.71435
29.6	2.70218
29.61	2.67882
29.62	2.69757
29.63	2.71928
29.64	2.70612
29.65	2.68244
29.66	2.67125
29.67	2.69987
29.68	2.68178
29.69	2.68342
29.7	2.67882
29.71	2.67816
29.72	2.7025
29.73	2.68507
29.74	2.71731
29.75	2.72191
29.76	2.71073
29.77	2.70875
29.78	2.70546
29.79	2.70218
29.8	2.72948
29.81	2.68013
29.82	2.6729
29.83	2.68474
29.84	2.68671
29.85	2.70119
29.86	2.68375
29.87	2.67981
29.88	2.67915
29.89	2.69658
29.9	2.74264
29.91	2.72553
29.92	2.70678
29.93	2.69461
29.94	2.69296
29.95	2.67158
29.96	2.67553
29.97	2.68737
29.98	2.70514
29.99	2.71599
30	2.7331
