"BIO-KINE ASCII FILE"
"_COMMENT"	"MOS-500 Spectrometer"
"_COMMENT"	"Kinetics measurement"
"_COMMENT"	"Y Unit : Volt,  X Unit : s"
"_COMMENT"	"Excitation wavelength : 380 nm"
"_COMMENT"	"Fentes bandwidth =  1 nm"
"_COMMENT"	"HV= 1000V"
"_COMMENT"	"Timebase  1 =  .01 s   5001 pts"
"_SFM"	"SFM-400 /S  Advanced mode"
"_SFM"	"Ratio : S1: 2.5, S2: 0, S3: 0, S4: 1"
"_SFM"	"Content : S1: , S2: , S3: , S4:"
"_SFM"	"Concentration : S1: , S2: , S3: , S4:"
"_SFM"	"Total volume : 209 µl  Flow : 3.5 mL/s"
"_SFM"	"Acquisition start :  10 ms before stop"
"_SFM"	"cuve=FC-15, s1=10 ml , s2=10 ml , s3=10 ml , s4=1.9 ml"
"_UNITX"	"s"
"_UNITY"	"Volt"
"_DELTAX"	0
"_DATA"
1e-300	4.47394
0.01	4.48348
0.02	4.51605
0.03	4.60454
0.04	4.6598
0.05	4.71178
0.06	4.7325
0.07	4.79237
0.08	4.80093
0.09	4.79172
0.1	4.80882
0.11	4.80224
0.12	4.82659
0.13	4.82691
0.14	4.82757
0.15	4.82626
0.16	4.8177
0.17	4.85652
0.18	4.83053
0.19	4.82823
0.2	4.87034
0.21	4.8029
0.22	4.82823
0.23	4.8256
0.24	4.81869
0.25	4.87428
0.26	4.85586
0.27	4.8608
0.28	4.82988
0.29	4.85356
0.3	4.82889
0.31	4.83119
0.32	4.84238
0.33	4.82626
0.34	4.82297
0.35	4.86705
0.36	4.87922
0.37	4.89501
0.38	4.85751
0.39	4.86606
0.4	4.84632
0.41	4.84534
0.42	4.85586
0.43	4.8233
0.44	4.84731
0.45	4.82955
0.46	4.86343
0.47	4.82593
0.48	4.81705
0.49	4.85389
0.5	4.82395
0.51	4.79797
0.52	4.82198
0.53	4.82494
0.54	4.79698
0.55	4.81211
0.56	4.82461
0.57	4.84139
0.58	4.81343
0.59	4.82955
0.6	4.85652
0.61	4.83251
0.62	4.79961
0.63	4.77922
0.64	4.79468
0.65	4.84468
0.66	4.84961
0.67	4.83777
0.68	4.80553
0.69	4.84665
0.7	4.79797
0.71	4.79303
0.72	4.82099
0.73	4.84435
0.74	4.8381
0.75	4.81902
0.76	4.77593
0.77	4.77428
0.78	4.78415
0.79	4.78152
0.8	4.79402
0.81	4.78645
0.82	4.7881
0.83	4.76573
0.84	4.7802
0.85	4.79895
0.86	4.79336
0.87	4.75586
0.88	4.79172
0.89	4.77297
0.9	4.77264
0.91	4.76573
0.92	4.77132
0.93	4.75685
0.94	4.75257
0.95	4.76869
0.96	4.79961
0.97	4.74171
0.98	4.80652
0.99	4.76507
1	4.76902
1.01	4.80389
1.02	4.81376
1.03	4.78777
1.04	4.77329
1.05	4.78053
1.06	4.76277
1.07	4.73974
1.08	4.74994
1.09	4.78251
1.1	4.7381
1.11	4.73744
1.12	4.73744
1.13	4.7552
1.14	4.82428
1.15	4.78645
1.16	4.76441
1.17	4.77231
1.18	4.75356
1.19	4.74796
1.2	4.71145
1.21	4.76244
1.22	4.73842
1.23	4.73283
1.24	4.72198
1.25	4.73349
1.26	4.75027
1.27	4.77
1.28	4.73316
1.29	4.75323
1.3	4.7302
1.31	4.74237
1.32	4.72724
1.33	4.73941
1.34	4.73875
1.35	4.76079
1.36	4.74435
1.37	4.73579
1.38	4.78152
1.39	4.72033
1.4	4.7154
1.41	4.75257
1.42	4.7177
1.43	4.71869
1.44	4.69237
1.45	4.71967
1.46	4.73382
1.47	4.73217
1.48	4.7075
1.49	4.68809
1.5	4.70356
1.51	4.71013
1.52	4.71573
1.53	4.68152
1.54	4.70816
1.55	4.7506
1.56	4.73974
1.57	4.7052
1.58	4.76507
1.59	4.68875
1.6	4.70684
1.61	4.72921
1.62	4.70388
1.63	4.68382
1.64	4.65092
1.65	4.67625
1.66	4.70816
1.67	4.68842
1.68	4.69895
1.69	4.70125
1.7	4.68152
1.71	4.66605
1.72	4.70684
1.73	4.66836
1.74	4.68316
1.75	4.73678
1.76	4.69599
1.77	4.69895
1.78	4.68711
1.79	4.67658
1.8	4.7302
1.81	4.69632
1.82	4.69237
1.83	4.69566
1.84	4.70783
1.85	4.67954
1.86	4.65684
1.87	4.67987
1.88	4.66901
1.89	4.63283
1.9	4.69731
1.91	4.68448
1.92	4.6779
1.93	4.69171
1.94	4.69171
1.95	4.71902
1.96	4.7029
1.97	4.67263
1.98	4.67165
1.99	4.67198
2	4.68349
2.01	4.67527
2.02	4.67395
2.03	4.68086
2.04	4.67888
2.05	4.68349
2.06	4.66309
2.07	4.70454
2.08	4.645
2.09	4.64401
2.1	4.6529
2.11	4.63678
2.12	4.66671
2.13	4.66408
2.14	4.66836
2.15	4.65224
2.16	4.67033
2.17	4.68382
2.18	4.70092
2.19	4.70224
2.2	4.64928
2.21	4.68711
2.22	4.64434
2.23	4.69105
2.24	4.65158
2.25	4.67362
2.26	4.61704
2.27	4.62658
2.28	4.67099
2.29	4.62855
2.3	4.65783
2.31	4.66869
2.32	4.67428
2.33	4.63217
2.34	4.58908
2.35	4.62822
2.36	4.60849
2.37	4.6677
2.38	4.60355
2.39	4.64401
2.4	4.66737
2.41	4.63349
2.42	4.60816
2.43	4.64434
2.44	4.63645
2.45	4.65125
2.46	4.63349
2.47	4.62066
2.48	4.63579
2.49	4.62
2.5	4.60322
2.51	4.58809
2.52	4.63546
2.53	4.61671
2.54	4.63546
2.55	4.6427
2.56	4.64204
2.57	4.61737
2.58	4.59763
2.59	4.63447
2.6	4.61046
2.61	4.60125
2.62	4.63743
2.63	4.61803
2.64	4.57164
2.65	4.6075
2.66	4.65783
2.67	4.63382
2.68	4.62197
2.69	4.63349
2.7	4.58283
2.71	4.64007
2.72	4.60783
2.73	4.5552
2.74	4.59664
2.75	4.58809
2.76	4.58118
2.77	4.58776
2.78	4.56079
2.79	4.56112
2.8	4.59533
2.81	4.60783
2.82	4.6098
2.83	4.57131
2.84	4.55552
2.85	4.5552
2.86	4.59401
2.87	4.58118
2.88	4.55881
2.89	4.57296
2.9	4.58743
2.91	4.54566
2.92	4.56441
2.93	4.55684
2.94	4.60553
2.95	4.65224
2.96	4.63086
2.97	4.59204
2.98	4.59072
2.99	4.58743
3	4.58941
3.01	4.56605
3.02	4.58217
3.03	4.54664
3.04	4.5019
3.05	4.53052
3.06	4.56309
3.07	4.59171
3.08	4.59303
3.09	4.5552
3.1	4.58184
3.11	4.58349
3.12	4.54598
3.13	4.54829
3.14	4.55223
3.15	4.57329
3.16	4.56112
3.17	4.58217
3.18	4.55125
3.19	4.56605
3.2	4.60289
3.21	4.57362
3.22	4.56177
3.23	4.51638
3.24	4.54006
3.25	4.54039
3.26	4.54796
3.27	4.57066
3.28	4.55849
3.29	4.56474
3.3	4.5575
3.31	4.58053
3.32	4.55322
3.33	4.55947
3.34	4.55191
3.35	4.49763
3.36	4.50914
3.37	4.55914
3.38	4.51046
3.39	4.56474
3.4	4.55059
3.41	4.53283
3.42	4.53875
3.43	4.5348
3.44	4.56934
3.45	4.5723
3.46	4.52822
3.47	4.54434
3.48	4.53908
3.49	4.52822
3.5	4.53809
3.51	4.55026
3.52	4.54401
3.53	4.49861
3.54	4.49171
3.55	4.50125
3.56	4.50519
3.57	4.52427
3.58	4.47131
3.59	4.4769
3.6	4.51276
3.61	4.51177
3.62	4.495
3.63	4.49171
3.64	4.54829
3.65	4.52
3.66	4.51276
3.67	4.52131
3.68	4.50355
3.69	4.5098
3.7	4.49335
3.71	4.4769
3.72	4.53348
3.73	4.54204
3.74	4.49302
3.75	4.51539
3.76	4.45289
3.77	4.45519
3.78	4.52691
3.79	4.5246
3.8	4.48052
3.81	4.51769
3.82	4.51144
3.83	4.51967
3.84	4.50322
3.85	4.48052
3.86	4.49204
3.87	4.52164
3.88	4.4848
3.89	4.4746
3.9	4.53644
3.91	4.51802
3.92	4.46835
3.93	4.52329
3.94	4.49993
3.95	4.50552
3.96	4.51309
3.97	4.46638
3.98	4.50289
3.99	4.54467
4	4.50125
4.01	4.4644
4.02	4.4996
4.03	4.50454
4.04	4.47394
4.05	4.44894
4.06	4.46605
4.07	4.45815
4.08	4.50881
4.09	4.50322
4.1	4.44927
4.11	4.43842
4.12	4.46769
4.13	4.47164
4.14	4.47427
4.15	4.49861
4.16	4.50256
4.17	4.45256
4.18	4.44598
4.19	4.45585
4.2	4.44499
4.21	4.41341
4.22	4.4746
4.23	4.51243
4.24	4.54138
4.25	4.48809
4.26	4.47296
4.27	4.46605
4.28	4.48348
4.29	4.49434
4.3	4.45124
4.31	4.45026
4.32	4.47427
4.33	4.51177
4.34	4.49763
4.35	4.49335
4.36	4.51704
4.37	4.48282
4.38	4.45322
4.39	4.47921
4.4	4.46539
4.41	4.4871
4.42	4.5019
4.43	4.45585
4.44	4.43118
4.45	4.47296
4.46	4.45453
4.47	4.48546
4.48	4.47296
4.49	4.4496
4.5	4.4598
4.51	4.42427
4.52	4.42328
4.53	4.44467
4.54	4.41934
4.55	4.44499
4.56	4.50223
4.57	4.49072
4.58	4.4848
4.59	4.46901
4.6	4.45881
4.61	4.45157
4.62	4.49204
4.63	4.46375
4.64	4.44993
4.65	4.44796
4.66	4.46605
4.67	4.45947
4.68	4.43907
4.69	4.42098
4.7	4.44631
4.71	4.48315
4.72	4.43973
4.73	4.44302
4.74	4.42295
4.75	4.45256
4.76	4.46078
4.77	4.47986
4.78	4.45223
4.79	4.47296
4.8	4.45355
4.81	4.46868
4.82	4.45486
4.83	4.45585
4.84	4.44532
4.85	4.43249
4.86	4.42065
4.87	4.41769
4.88	4.39598
4.89	4.41638
4.9	4.42164
4.91	4.43151
4.92	4.39762
4.93	4.4269
4.94	4.42098
4.95	4.41703
4.96	4.42855
4.97	4.41407
4.98	4.45256
4.99	4.46013
5	4.4246
5.01	4.41605
5.02	4.42295
5.03	4.39697
5.04	4.43118
5.05	4.41966
5.06	4.41934
5.07	4.41243
5.08	4.42065
5.09	4.37657
5.1	4.41638
5.11	4.41013
5.12	4.39269
5.13	4.3996
5.14	4.39565
5.15	4.45618
5.16	4.40716
5.17	4.38447
5.18	4.39434
5.19	4.39105
5.2	4.35552
5.21	4.42394
5.22	4.41638
5.23	4.36802
5.24	4.39795
5.25	4.40585
5.26	4.37164
5.27	4.41276
5.28	4.43611
5.29	4.43677
5.3	4.39927
5.31	4.37986
5.32	4.38282
5.33	4.40322
5.34	4.42098
5.35	4.43776
5.36	4.41177
5.37	4.3644
5.38	4.37789
5.39	4.39993
5.4	4.41276
5.41	4.40782
5.42	4.42098
5.43	4.40289
5.44	4.40256
5.45	4.40651
5.46	4.39434
5.47	4.39105
5.48	4.3973
5.49	4.40552
5.5	4.37855
5.51	4.40749
5.52	4.41276
5.53	4.39565
5.54	4.36111
5.55	4.41243
5.56	4.34466
5.57	4.36341
5.58	4.36604
5.59	4.3746
5.6	4.38874
5.61	4.40091
5.62	4.41309
5.63	4.42723
5.64	4.40355
5.65	4.45552
5.66	4.45092
5.67	4.38052
5.68	4.36637
5.69	4.39269
5.7	4.38545
5.71	4.38414
5.72	4.42065
5.73	4.38249
5.74	4.39828
5.75	4.36637
5.76	4.40256
5.77	4.4223
5.78	4.38841
5.79	4.34861
5.8	4.42065
5.81	4.40749
5.82	4.42328
5.83	4.36276
5.84	4.38151
5.85	4.41736
5.86	4.35387
5.87	4.36374
5.88	4.36276
5.89	4.34927
5.9	4.36835
5.91	4.35618
5.92	4.33512
5.93	4.35519
5.94	4.33677
5.95	4.33118
5.96	4.37427
5.97	4.36966
5.98	4.39335
5.99	4.33381
6	4.36506
6.01	4.4042
6.02	4.40256
6.03	4.37493
6.04	4.40059
6.05	4.38381
6.06	4.40026
6.07	4.38151
6.08	4.37164
6.09	4.38085
6.1	4.40881
6.11	4.38151
6.12	4.35354
6.13	4.34894
6.14	4.36276
6.15	4.37131
6.16	4.32887
6.17	4.35025
6.18	4.3644
6.19	4.32986
6.2	4.34302
6.21	4.36999
6.22	4.35157
6.23	4.3519
6.24	4.31473
6.25	4.34532
6.26	4.37953
6.27	4.37493
6.28	4.33512
6.29	4.30453
6.3	4.33085
6.31	4.319
6.32	4.34104
6.33	4.30453
6.34	4.34927
6.35	4.40585
6.36	4.37427
6.37	4.33973
6.38	4.30782
6.39	4.32196
6.4	4.35947
6.41	4.33348
6.42	4.35979
6.43	4.39401
6.44	4.34664
6.45	4.3644
6.46	4.32591
6.47	4.3621
6.48	4.34466
6.49	4.32032
6.5	4.33019
6.51	4.35618
6.52	4.33446
6.53	4.3746
6.54	4.32624
6.55	4.35289
6.56	4.29367
6.57	4.33644
6.58	4.33183
6.59	4.29302
6.6	4.35618
6.61	4.34664
6.62	4.30815
6.63	4.31111
6.64	4.32131
6.65	4.33545
6.66	4.33578
6.67	4.3315
6.68	4.3371
6.69	4.35124
6.7	4.33743
6.71	4.27986
6.72	4.32887
6.73	4.31473
6.74	4.29367
6.75	4.33282
6.76	4.33973
6.77	4.3315
6.78	4.33085
6.79	4.30782
6.8	4.28907
6.81	4.3246
6.82	4.36933
6.83	4.33414
6.84	4.34828
6.85	4.31144
6.86	4.29729
6.87	4.33052
6.88	4.3167
6.89	4.3371
6.9	4.33644
6.91	4.34828
6.92	4.33118
6.93	4.33611
6.94	4.31999
6.95	4.31539
6.96	4.31242
6.97	4.32262
6.98	4.34795
6.99	4.34762
7	4.3065
7.01	4.30881
7.02	4.32986
7.03	4.31012
7.04	4.30552
7.05	4.32196
7.06	4.294
7.07	4.31999
7.08	4.28775
7.09	4.32789
7.1	4.30288
7.11	4.31867
7.12	4.32196
7.13	4.32328
7.14	4.32262
7.15	4.27821
7.16	4.30979
7.17	4.30552
7.18	4.30815
7.19	4.29598
7.2	4.29499
7.21	4.30091
7.22	4.31835
7.23	4.29433
7.24	4.29565
7.25	4.25946
7.26	4.25058
7.27	4.28413
7.28	4.25223
7.29	4.28578
7.3	4.31539
7.31	4.31012
7.32	4.26637
7.33	4.28709
7.34	4.28677
7.35	4.29894
7.36	4.28052
7.37	4.27624
7.38	4.25946
7.39	4.29137
7.4	4.29203
7.41	4.30914
7.42	4.32756
7.43	4.32361
7.44	4.26703
7.45	4.24992
7.46	4.26571
7.47	4.27854
7.48	4.27657
7.49	4.25453
7.5	4.269
7.51	4.31242
7.52	4.30486
7.53	4.25519
7.54	4.27196
7.55	4.28183
7.56	4.29828
7.57	4.31539
7.58	4.30157
7.59	4.32098
7.6	4.30025
7.61	4.30683
7.62	4.32821
7.63	4.29729
7.64	4.26505
7.65	4.25091
7.66	4.27427
7.67	4.24992
7.68	4.27459
7.69	4.27788
7.7	4.28545
7.71	4.29466
7.72	4.31374
7.73	4.28282
7.74	4.2894
7.75	4.29269
7.76	4.28381
7.77	4.25979
7.78	4.25058
7.79	4.28413
7.8	4.24926
7.81	4.25552
7.82	4.2894
7.83	4.26177
7.84	4.31637
7.85	4.27098
7.86	4.27624
7.87	4.26933
7.88	4.27986
7.89	4.26933
7.9	4.27756
7.91	4.28611
7.92	4.26571
7.93	4.2917
7.94	4.29565
7.95	4.26341
7.96	4.24433
7.97	4.27591
7.98	4.27032
7.99	4.28019
8	4.31407
8.01	4.27986
8.02	4.26242
8.03	4.23216
8.04	4.28644
8.05	4.28775
8.06	4.27032
8.07	4.28874
8.08	4.28282
8.09	4.27065
8.1	4.27624
8.11	4.28183
8.12	4.27229
8.13	4.2713
8.14	4.29071
8.15	4.26209
8.16	4.25387
8.17	4.29203
8.18	4.29894
8.19	4.31111
8.2	4.27558
8.21	4.28019
8.22	4.27953
8.23	4.27163
8.24	4.28611
8.25	4.25584
8.26	4.2667
8.27	4.27986
8.28	4.28282
8.29	4.22986
8.3	4.26736
8.31	4.30025
8.32	4.26407
8.33	4.24499
8.34	4.26242
8.35	4.244
8.36	4.23775
8.37	4.23183
8.38	4.27756
8.39	4.24992
8.4	4.24466
8.41	4.25552
8.42	4.219
8.43	4.23808
8.44	4.23676
8.45	4.23216
8.46	4.25913
8.47	4.28479
8.48	4.25617
8.49	4.23578
8.5	4.19005
8.51	4.20815
8.52	4.2065
8.53	4.22854
8.54	4.20584
8.55	4.26374
8.56	4.2588
8.57	4.25091
8.58	4.23578
8.59	4.2417
8.6	4.23578
8.61	4.23347
8.62	4.20815
8.63	4.23216
8.64	4.22854
8.65	4.22591
8.66	4.22361
8.67	4.23282
8.68	4.25354
8.69	4.23578
8.7	4.26637
8.71	4.28084
8.72	4.22986
8.73	4.22492
8.74	4.24598
8.75	4.25288
8.76	4.23051
8.77	4.24565
8.78	4.23446
8.79	4.22788
8.8	4.28052
8.81	4.22986
8.82	4.23019
8.83	4.26242
8.84	4.23315
8.85	4.20551
8.86	4.21538
8.87	4.23611
8.88	4.26637
8.89	4.25946
8.9	4.20617
8.91	4.23808
8.92	4.27196
8.93	4.24104
8.94	4.27065
8.95	4.2042
8.96	4.22986
8.97	4.23084
8.98	4.21407
8.99	4.21933
9	4.21111
9.01	4.19893
9.02	4.2463
9.03	4.21078
9.04	4.21275
9.05	4.24104
9.06	4.23512
9.07	4.22558
9.08	4.23315
9.09	4.21966
9.1	4.21111
9.11	4.19203
9.12	4.23545
9.13	4.25552
9.14	4.22065
9.15	4.25946
9.16	4.26078
9.17	4.20847
9.18	4.22426
9.19	4.22986
9.2	4.24071
9.21	4.23808
9.22	4.24071
9.23	4.20486
9.24	4.20354
9.25	4.23282
9.26	4.25519
9.27	4.24795
9.28	4.23808
9.29	4.21176
9.3	4.21505
9.31	4.19597
9.32	4.24795
9.33	4.23841
9.34	4.2269
9.35	4.24696
9.36	4.18676
9.37	4.18018
9.38	4.20847
9.39	4.22361
9.4	4.20124
9.41	4.19861
9.42	4.21472
9.43	4.25387
9.44	4.23084
9.45	4.219
9.46	4.21604
9.47	4.22722
9.48	4.18117
9.49	4.15781
9.5	4.20716
9.51	4.21736
9.52	4.23446
9.53	4.19926
9.54	4.18742
9.55	4.22361
9.56	4.23973
9.57	4.2042
9.58	4.24137
9.59	4.26242
9.6	4.25749
9.61	4.2213
9.62	4.19959
9.63	4.18314
9.64	4.19236
9.65	4.22361
9.66	4.21242
9.67	4.21637
9.68	4.22394
9.69	4.21143
9.7	4.21933
9.71	4.23479
9.72	4.2167
9.73	4.21407
9.74	4.20222
9.75	4.19663
9.76	4.20749
9.77	4.18117
9.78	4.20815
9.79	4.23644
9.8	4.23183
9.81	4.21999
9.82	4.21933
9.83	4.21209
9.84	4.2167
9.85	4.21341
9.86	4.23413
9.87	4.18841
9.88	4.1667
9.89	4.15814
9.9	4.20124
9.91	4.21045
9.92	4.22262
9.93	4.21867
9.94	4.20584
9.95	4.15321
9.96	4.18183
9.97	4.20453
9.98	4.19532
9.99	4.19301
10	4.19334
10.01	4.23019
10.02	4.24301
10.03	4.20946
10.04	4.17689
10.05	4.20683
10.06	4.22097
10.07	4.17591
10.08	4.16439
10.09	4.16439
10.1	4.16341
10.11	4.18216
10.12	4.23907
10.13	4.23282
10.14	4.19663
10.15	4.19532
10.16	4.15847
10.17	4.16966
10.18	4.2292
10.19	4.17985
10.2	4.1838
10.21	4.19696
10.22	4.20321
10.23	4.15025
10.24	4.18018
10.25	4.17657
10.26	4.19334
10.27	4.21571
10.28	4.21242
10.29	4.20979
10.3	4.20157
10.31	4.22032
10.32	4.19893
10.33	4.18676
10.34	4.15452
10.35	4.17196
10.36	4.18084
10.37	4.15847
10.38	4.18413
10.39	4.16966
10.4	4.18545
10.41	4.20387
10.42	4.20749
10.43	4.23019
10.44	4.2042
10.45	4.19071
10.46	4.16472
10.47	4.19301
10.48	4.18907
10.49	4.13939
10.5	4.18841
10.51	4.17328
10.52	4.16209
10.53	4.18018
10.54	4.19663
10.55	4.18643
10.56	4.14827
10.57	4.20453
10.58	4.21407
10.59	4.18578
10.6	4.18742
10.61	4.15156
10.62	4.19893
10.63	4.18216
10.64	4.1861
10.65	4.20946
10.66	4.19729
10.67	4.15781
10.68	4.18314
10.69	4.14926
10.7	4.14696
10.71	4.15255
10.72	4.13874
10.73	4.16538
10.74	4.16143
10.75	4.19597
10.76	4.13216
10.77	4.15156
10.78	4.14696
10.79	4.1792
10.8	4.20551
10.81	4.15946
10.82	4.19828
10.83	4.18413
10.84	4.15946
10.85	4.20189
10.86	4.20913
10.87	4.19828
10.88	4.19499
10.89	4.15946
10.9	4.17788
10.91	4.17953
10.92	4.18545
10.93	4.15617
10.94	4.18117
10.95	4.15551
10.96	4.18709
10.97	4.10683
10.98	4.12722
10.99	4.17657
11	4.17558
11.01	4.17229
11.02	4.1611
11.03	4.20091
11.04	4.18512
11.05	4.13709
11.06	4.16275
11.07	4.17525
11.08	4.15354
11.09	4.15979
11.1	4.16966
11.11	4.19926
11.12	4.21143
11.13	4.18742
11.14	4.17953
11.15	4.18117
11.16	4.17953
11.17	4.1838
11.18	4.194
11.19	4.18347
11.2	4.17953
11.21	4.18282
11.22	4.14499
11.23	4.17097
11.24	4.17393
11.25	4.18249
11.26	4.1417
11.27	4.17953
11.28	4.17064
11.29	4.17722
11.3	4.15683
11.31	4.19564
11.32	4.19071
11.33	4.19696
11.34	4.16143
11.35	4.19926
11.36	4.16505
11.37	4.13347
11.38	4.17295
11.39	4.14795
11.4	4.1542
11.41	4.19828
11.42	4.1667
11.43	4.13874
11.44	4.16045
11.45	4.1667
11.46	4.15814
11.47	4.18347
11.48	4.1542
11.49	4.15584
11.5	4.16308
11.51	4.12854
11.52	4.18282
11.53	4.15814
11.54	4.12031
11.55	4.17953
11.56	4.1736
11.57	4.17624
11.58	4.16012
11.59	4.18347
11.6	4.17722
11.61	4.1792
11.62	4.12558
11.63	4.18051
11.64	4.19005
11.65	4.17689
11.66	4.19236
11.67	4.19203
11.68	4.17985
11.69	4.14531
11.7	4.19663
11.71	4.18775
11.72	4.15946
11.73	4.1338
11.74	4.13018
11.75	4.15979
11.76	4.15321
11.77	4.16867
11.78	4.15781
11.79	4.12656
11.8	4.13643
11.81	4.15551
11.82	4.17295
11.83	4.20025
11.84	4.18216
11.85	4.19499
11.86	4.16341
11.87	4.13577
11.88	4.1838
11.89	4.15288
11.9	4.15255
11.91	4.15749
11.92	4.16801
11.93	4.12097
11.94	4.13906
11.95	4.13545
11.96	4.1542
11.97	4.15781
11.98	4.1417
11.99	4.1338
12	4.15716
12.01	4.16966
12.02	4.119
12.03	4.15749
12.04	4.13709
12.05	4.13775
12.06	4.16604
12.07	4.17229
12.08	4.16637
12.09	4.13347
12.1	4.17722
12.11	4.1838
12.12	4.15847
12.13	4.17196
12.14	4.15025
12.15	4.16439
12.16	4.16045
12.17	4.12196
12.18	4.13018
12.19	4.11768
12.2	4.1486
12.21	4.13413
12.22	4.14466
12.23	4.14104
12.24	4.13248
12.25	4.11933
12.26	4.1361
12.27	4.10255
12.28	4.12492
12.29	4.12097
12.3	4.12163
12.31	4.13512
12.32	4.16505
12.33	4.12755
12.34	4.1213
12.35	4.15847
12.36	4.11637
12.37	4.12426
12.38	4.09696
12.39	4.21275
12.4	4.19137
12.41	4.16209
12.42	4.1736
12.43	4.12262
12.44	4.12623
12.45	4.13281
12.46	4.13874
12.47	4.12327
12.48	4.16933
12.49	4.1361
12.5	4.11998
12.51	4.12492
12.52	4.12985
12.53	4.13347
12.54	4.10518
12.55	4.08248
12.56	4.10847
12.57	4.13446
12.58	4.12952
12.59	4.11702
12.6	4.14334
12.61	4.11834
12.62	4.18051
12.63	4.14071
12.64	4.11209
12.65	4.14137
12.66	4.15617
12.67	4.13084
12.68	4.16571
12.69	4.1417
12.7	4.16242
12.71	4.12196
12.72	4.13281
12.73	4.16703
12.74	4.12591
12.75	4.11735
12.76	4.12854
12.77	4.14762
12.78	4.15584
12.79	4.11933
12.8	4.10617
12.81	4.10847
12.82	4.10814
12.83	4.144
12.84	4.16834
12.85	4.11637
12.86	4.14992
12.87	4.11637
12.88	4.119
12.89	4.10913
12.9	4.13183
12.91	4.12229
12.92	4.13775
12.93	4.17229
12.94	4.12426
12.95	4.14137
12.96	4.13347
12.97	4.08873
12.98	4.1009
12.99	4.12887
13	4.12525
13.01	4.09762
13.02	4.13248
13.03	4.13742
13.04	4.15946
13.05	4.11472
13.06	4.14104
13.07	4.11143
13.08	4.06768
13.09	4.11242
13.1	4.11637
13.11	4.11209
13.12	4.11966
13.13	4.14827
13.14	4.1236
13.15	4.13314
13.16	4.16472
13.17	4.12262
13.18	4.13479
13.19	4.13545
13.2	4.11801
13.21	4.10419
13.22	4.10419
13.23	4.12393
13.24	4.14466
13.25	4.12426
13.26	4.09005
13.27	4.0759
13.28	4.11275
13.29	4.12426
13.3	4.11012
13.31	4.09169
13.32	4.11373
13.33	4.08215
13.34	4.11209
13.35	4.1065
13.36	4.15255
13.37	4.11669
13.38	4.09498
13.39	4.13972
13.4	4.08775
13.41	4.08939
13.42	4.10683
13.43	4.10189
13.44	4.13183
13.45	4.11209
13.46	4.13347
13.47	4.12097
13.48	4.1088
13.49	4.12262
13.5	4.14071
13.51	4.1292
13.52	4.09762
13.53	4.11242
13.54	4.13709
13.55	4.11308
13.56	4.12262
13.57	4.11209
13.58	4.10025
13.59	4.11834
13.6	4.11275
13.61	4.10189
13.62	4.09071
13.63	4.12163
13.64	4.10452
13.65	4.14202
13.66	4.144
13.67	4.13676
13.68	4.11966
13.69	4.10781
13.7	4.08051
13.71	4.09367
13.72	4.10123
13.73	4.11998
13.74	4.10913
13.75	4.09071
13.76	4.07492
13.77	4.08709
13.78	4.11735
13.79	4.12327
13.8	4.09104
13.81	4.0986
13.82	4.11637
13.83	4.10387
13.84	4.09992
13.85	4.12558
13.86	4.11308
13.87	4.07558
13.88	4.08643
13.89	4.10156
13.9	4.10189
13.91	4.12262
13.92	4.15683
13.93	4.09531
13.94	4.09038
13.95	4.12525
13.96	4.10617
13.97	4.14235
13.98	4.06307
13.99	4.0861
14	4.11176
14.01	4.11669
14.02	4.09729
14.03	4.10716
14.04	4.07952
14.05	4.07558
14.06	4.11867
14.07	4.10584
14.08	4.10354
14.09	4.11669
14.1	4.09367
14.11	4.1009
14.12	4.11341
14.13	4.11012
14.14	4.11176
14.15	4.12295
14.16	4.11998
14.17	4.13281
14.18	4.08347
14.19	4.10716
14.2	4.13018
14.21	4.15979
14.22	4.11669
14.23	4.1315
14.24	4.15354
14.25	4.12591
14.26	4.12393
14.27	4.11505
14.28	4.1588
14.29	4.06768
14.3	4.08281
14.31	4.08413
14.32	4.11044
14.33	4.11176
14.34	4.12525
14.35	4.12591
14.36	4.13972
14.37	4.08939
14.38	4.09268
14.39	4.11472
14.4	4.08808
14.41	4.10419
14.42	4.0986
14.43	4.10419
14.44	4.11439
14.45	4.10058
14.46	4.08117
14.47	4.08479
14.48	4.08117
14.49	4.11209
14.5	4.09038
14.51	4.06439
14.52	4.10716
14.53	4.15617
14.54	4.10979
14.55	4.08906
14.56	4.11538
14.57	4.10452
14.58	4.11735
14.59	4.10387
14.6	4.09169
14.61	4.06965
14.62	4.10847
14.63	4.09564
14.64	4.09663
14.65	4.08084
14.66	4.09597
14.67	4.09696
14.68	4.10814
14.69	4.08808
14.7	4.07886
14.71	4.10781
14.72	4.10683
14.73	4.1009
14.74	4.1088
14.75	4.07886
14.76	4.09893
14.77	4.10058
14.78	4.07854
14.79	4.09268
14.8	4.15518
14.81	4.11077
14.82	4.07492
14.83	4.07952
14.84	4.07261
14.85	4.07919
14.86	4.10814
14.87	4.12722
14.88	4.10387
14.89	4.09893
14.9	4.09169
14.91	4.08577
14.92	4.12163
14.93	4.12229
14.94	4.09564
14.95	4.07492
14.96	4.09531
14.97	4.08281
14.98	4.11702
14.99	4.11669
15	4.12327
15.01	4.05288
15.02	4.0986
15.03	4.09893
15.04	4.03906
15.05	4.09564
15.06	4.11669
15.07	4.09597
15.08	4.07886
15.09	4.12327
15.1	4.07196
15.11	4.09663
15.12	4.08906
15.13	4.08511
15.14	4.09005
15.15	4.07755
15.16	4.07163
15.17	4.09104
15.18	4.09071
15.19	4.07393
15.2	4.04663
15.21	4.0736
15.22	4.06077
15.23	4.08511
15.24	4.08873
15.25	4.07985
15.26	4.08183
15.27	4.06669
15.28	4.10025
15.29	4.09465
15.3	4.11538
15.31	4.09169
15.32	4.0634
15.33	4.08643
15.34	4.04136
15.35	4.10025
15.36	4.09729
15.37	4.05814
15.38	4.07031
15.39	4.08972
15.4	4.07558
15.41	4.07294
15.42	4.10683
15.43	4.04005
15.44	4.0884
15.45	4.09104
15.46	4.09531
15.47	4.09959
15.48	4.08347
15.49	4.06505
15.5	4.09071
15.51	4.09005
15.52	4.1361
15.53	4.07031
15.54	4.09663
15.55	4.10419
15.56	4.09202
15.57	4.09268
15.58	4.07426
15.59	4.10584
15.6	4.07755
15.61	4.06406
15.62	4.09794
15.63	4.09498
15.64	4.07755
15.65	4.13084
15.66	4.1065
15.67	4.08643
15.68	4.11867
15.69	4.09531
15.7	4.07755
15.71	4.08775
15.72	4.06406
15.73	4.04465
15.74	4.06834
15.75	4.11176
15.76	4.08808
15.77	4.08018
15.78	4.08215
15.79	4.07788
15.8	4.11669
15.81	4.10354
15.82	4.07492
15.83	4.12722
15.84	4.14137
15.85	4.10913
15.86	4.06998
15.87	4.10123
15.88	4.12821
15.89	4.10025
15.9	4.09597
15.91	4.07788
15.92	4.06932
15.93	4.09729
15.94	4.10584
15.95	4.08183
15.96	4.09696
15.97	4.09926
15.98	4.10156
15.99	4.1315
16	4.09959
16.01	4.06669
16.02	4.09564
16.03	4.10387
16.04	4.06439
16.05	4.06505
16.06	4.07525
16.07	4.06077
16.08	4.07821
16.09	4.05847
16.1	4.11669
16.11	4.12525
16.12	4.09169
16.13	4.06702
16.14	4.04367
16.15	4.06669
16.16	4.10156
16.17	4.07886
16.18	4.0861
16.19	4.05025
16.2	4.10847
16.21	4.02985
16.22	4.07097
16.23	4.03676
16.24	4.08479
16.25	4.10189
16.26	4.07393
16.27	4.10551
16.28	4.11406
16.29	4.05682
16.3	4.08051
16.31	4.0759
16.32	4.11341
16.33	4.12689
16.34	4.10255
16.35	4.1065
16.36	4.08117
16.37	4.08808
16.38	4.10847
16.39	4.06176
16.4	4.04038
16.41	4.05715
16.42	4.05353
16.43	4.11012
16.44	4.07985
16.45	4.10551
16.46	4.05814
16.47	4.08281
16.48	4.14531
16.49	4.10748
16.5	4.10156
16.51	4.09663
16.52	4.04696
16.53	4.08873
16.54	4.0588
16.55	4.08643
16.56	4.07327
16.57	4.07854
16.58	4.04498
16.59	4.07623
16.6	4.05584
16.61	4.07163
16.62	4.04794
16.63	4.05419
16.64	4.10354
16.65	4.09729
16.66	4.0838
16.67	4.03906
16.68	4.05485
16.69	4.06242
16.7	4.04926
16.71	4.11044
16.72	4.07492
16.73	4.06604
16.74	4.07229
16.75	4.10518
16.76	4.13939
16.77	4.06604
16.78	4.0611
16.79	4.07294
16.8	4.07229
16.81	4.13545
16.82	4.10748
16.83	4.09696
16.84	4.07294
16.85	4.08775
16.86	4.10584
16.87	4.09038
16.88	4.06406
16.89	4.04005
16.9	4.0259
16.91	4.10847
16.92	4.08939
16.93	4.10979
16.94	4.07492
16.95	4.10058
16.96	4.08577
16.97	4.10781
16.98	4.08248
16.99	4.08084
17	4.03248
17.01	4.04761
17.02	4.04827
17.03	4.07722
17.04	4.09597
17.05	4.09926
17.06	4.0588
17.07	4.05617
17.08	4.07821
17.09	4.0713
17.1	4.07163
17.11	4.03709
17.12	4.07426
17.13	4.03972
17.14	4.08742
17.15	4.05814
17.16	4.08873
17.17	4.09827
17.18	4.06077
17.19	4.05189
17.2	4.04005
17.21	4.06176
17.22	4.06077
17.23	4.0634
17.24	4.1236
17.25	4.08018
17.26	4.06604
17.27	4.07426
17.28	4.0509
17.29	4.06636
17.3	4.05551
17.31	4.08117
17.32	4.08742
17.33	4.06571
17.34	4.06505
17.35	4.08215
17.36	4.06768
17.37	4.05551
17.38	4.01899
17.39	4.0588
17.4	4.10123
17.41	4.06011
17.42	4.06373
17.43	4.09433
17.44	4.06768
17.45	4.07163
17.46	4.06209
17.47	4.05156
17.48	4.07985
17.49	4.1009
17.5	4.08281
17.51	4.03906
17.52	4.05189
17.53	4.07788
17.54	4.08972
17.55	4.07623
17.56	4.07623
17.57	4.06242
17.58	4.10222
17.59	4.07886
17.6	4.06932
17.61	4.05321
17.62	4.05386
17.63	4.04663
17.64	4.06505
17.65	4.0565
17.66	4.04367
17.67	4.05419
17.68	4.05847
17.69	4.05255
17.7	4.06604
17.71	4.10025
17.72	4.0884
17.73	4.08084
17.74	4.10058
17.75	4.06406
17.76	4.10485
17.77	4.08479
17.78	4.05123
17.79	4.03347
17.8	4.0861
17.81	4.10419
17.82	4.119
17.83	4.05551
17.84	4.07492
17.85	4.05617
17.86	4.05979
17.87	4.07426
17.88	4.04728
17.89	4.05288
17.9	4.03643
17.91	4.07031
17.92	4.07064
17.93	4.0361
17.94	4.0861
17.95	4.07755
17.96	4.04794
17.97	4.06439
17.98	4.10683
17.99	4.0713
18	4.0611
18.01	4.06439
18.02	4.08479
18.03	4.09104
18.04	4.06044
18.05	4.05189
18.06	4.0884
18.07	4.02952
18.08	4.07196
18.09	4.08281
18.1	4.05288
18.11	4.06768
18.12	4.09762
18.13	4.06801
18.14	4.03774
18.15	4.06669
18.16	4.07656
18.17	4.04235
18.18	4.08051
18.19	4.07196
18.2	4.06011
18.21	4.0509
18.22	4.09663
18.23	4.0815
18.24	4.06801
18.25	4.06044
18.26	4.02524
18.27	4.07459
18.28	4.07821
18.29	4.0634
18.3	4.06077
18.31	4.04465
18.32	4.04301
18.33	4.06242
18.34	4.05518
18.35	4.09268
18.36	4.0861
18.37	4.08183
18.38	4.10847
18.39	4.07656
18.4	4.05814
18.41	4.06472
18.42	4.04761
18.43	4.05321
18.44	4.05288
18.45	4.04926
18.46	4.09794
18.47	4.08347
18.48	4.07854
18.49	4.07722
18.5	4.0986
18.51	4.06044
18.52	4.07229
18.53	4.07294
18.54	4.06735
18.55	4.08544
18.56	4.08281
18.57	4.07064
18.58	4.05321
18.59	4.07919
18.6	4.03577
18.61	4.07886
18.62	4.07327
18.63	4.04136
18.64	4.04893
18.65	4.04169
18.66	4.06998
18.67	4.04794
18.68	4.05682
18.69	4.06636
18.7	4.04169
18.71	4.09564
18.72	4.06768
18.73	4.0384
18.74	4.05781
18.75	4.05781
18.76	4.09169
18.77	4.0509
18.78	4.06176
18.79	4.04794
18.8	4.05485
18.81	4.06604
18.82	4.09367
18.83	4.05979
18.84	4.06636
18.85	4.09663
18.86	4.05189
18.87	4.07031
18.88	4.06373
18.89	4.07196
18.9	4.06505
18.91	4.09498
18.92	4.05518
18.93	4.0384
18.94	4.09498
18.95	4.06143
18.96	4.04597
18.97	4.0713
18.98	4.06867
18.99	4.02195
19	4.04268
19.01	4.04038
19.02	4.03676
19.03	4.05946
19.04	4.07459
19.05	4.07097
19.06	4.07097
19.07	4.07525
19.08	4.09465
19.09	4.04926
19.1	4.044
19.11	4.06176
19.12	4.03413
19.13	4.04268
19.14	4.0611
19.15	4.04564
19.16	4.04696
19.17	4.06636
19.18	4.03774
19.19	4.03018
19.2	4.01143
19.21	4.02163
19.22	4.05748
19.23	4.04038
19.24	4.00945
19.25	4.04005
19.26	4.05485
19.27	4.03906
19.28	4.05452
19.29	4.03577
19.3	4.06801
19.31	4.06143
19.32	4.05353
19.33	4.04301
19.34	4.0384
19.35	4.05913
19.36	4.08511
19.37	4.07064
19.38	3.99432
19.39	4.03873
19.4	4.04367
19.41	4.04728
19.42	4.06242
19.43	4.04597
19.44	4.06669
19.45	4.01176
19.46	4.07821
19.47	4.08577
19.48	4.04794
19.49	4.06242
19.5	4.05156
19.51	4.06932
19.52	4.01932
19.53	4.00551
19.54	4.05979
19.55	4.0384
19.56	4.0361
19.57	4.04761
19.58	4.0861
19.59	4.07854
19.6	4.0713
19.61	4.04696
19.62	4.02163
19.63	4.06373
19.64	4.03774
19.65	4.01998
19.66	4.01209
19.67	4.05321
19.68	4.06143
19.69	4.05584
19.7	4.0486
19.71	4.06209
19.72	4.02886
19.73	4.02853
19.74	4.0236
19.75	4.09268
19.76	4.0111
19.77	4.05946
19.78	4.07261
19.79	4.03643
19.8	4.05452
19.81	4.06768
19.82	4.06176
19.83	4.03972
19.84	4.02557
19.85	4.03643
19.86	4.00485
19.87	4.0384
19.88	4.05419
19.89	4.07327
19.9	4.07196
19.91	4.05353
19.92	4.0634
19.93	4.01932
19.94	4.06604
19.95	4.05847
19.96	4.04926
19.97	4.08742
19.98	4.0509
19.99	4.04367
20	4.07229
20.01	4.03577
20.02	4.03511
20.03	4.05025
20.04	4.06307
20.05	4.03577
20.06	4.05682
20.07	4.06867
20.08	4.06439
20.09	4.03347
20.1	4.04038
20.11	4.03906
20.12	4.05946
20.13	4.069
20.14	4.03413
20.15	4.0236
20.16	4.03149
20.17	4.06834
20.18	4.01702
20.19	4.00353
20.2	4.03182
20.21	4.04959
20.22	4.00485
20.23	3.98709
20.24	4.00123
20.25	4.06044
20.26	4.03182
20.27	4.02524
20.28	4.10814
20.29	4.03643
20.3	4.01932
20.31	4.03742
20.32	4.05946
20.33	4.05156
20.34	4.01834
20.35	4.03149
20.36	4.04531
20.37	4.08018
20.38	4.04235
20.39	4.00156
20.4	4.03314
20.41	4.06604
20.42	4.01143
20.43	4.01044
20.44	4.04761
20.45	4.03676
20.46	4.07492
20.47	4.02722
20.48	4.06834
20.49	4.09137
20.5	4.06077
20.51	4.04794
20.52	4.08314
20.53	4.05847
20.54	4.03742
20.55	4.04005
20.56	4.06834
20.57	4.04926
20.58	4.06406
20.59	4.05979
20.6	4.03347
20.61	4.02031
20.62	4.06307
20.63	4.02788
20.64	4.03939
20.65	4.03215
20.66	4.04827
20.67	4.01768
20.68	4.03511
20.69	4.07722
20.7	4.04103
20.71	4.04498
20.72	4.03084
20.73	4.01505
20.74	4.0463
20.75	4.0463
20.76	4.06669
20.77	4.02689
20.78	4.0565
20.79	4.06636
20.8	4.04038
20.81	4.05584
20.82	4.04169
20.83	4.04992
20.84	4.01932
20.85	4.05321
20.86	4.03511
20.87	4.02952
20.88	4.0861
20.89	4.044
20.9	4.05156
20.91	4.02557
20.92	4.07558
20.93	4.01603
20.94	4.03939
20.95	4.04794
20.96	4.04794
20.97	4.00353
20.98	4.04597
20.99	4.04893
21	4.03215
21.01	4.06801
21.02	4.0588
21.03	4.01209
21.04	4.03577
21.05	4.0236
21.06	4.03314
21.07	4.05584
21.08	4.03314
21.09	4.05452
21.1	4.04827
21.11	4.07919
21.12	4.04663
21.13	4.02788
21.14	4.02228
21.15	4.03873
21.16	4.07492
21.17	4.06702
21.18	4.01307
21.19	4.03084
21.2	4.03018
21.21	4.02064
21.22	4.00847
21.23	4.03446
21.24	4.05485
21.25	4.03742
21.26	4.05057
21.27	4.05452
21.28	4.02788
21.29	4.01702
21.3	4.01373
21.31	4.04827
21.32	4.03215
21.33	4.02393
21.34	4.04992
21.35	4.07886
21.36	4.06307
21.37	4.0486
21.38	4.05452
21.39	4.05386
21.4	4.02853
21.41	4.05979
21.42	4.05057
21.43	4.01768
21.44	4.0861
21.45	4.06604
21.46	4.02985
21.47	4.04696
21.48	4.05913
21.49	4.04202
21.5	4.02327
21.51	4.05847
21.52	4.04761
21.53	3.99334
21.54	4.0713
21.55	4.04235
21.56	4.02294
21.57	4.044
21.58	4.05255
21.59	4.04498
21.6	4.02261
21.61	4.044
21.62	4.05518
21.63	4.00978
21.64	4.02656
21.65	4.05617
21.66	4.03807
21.67	4.0588
21.68	4.0213
21.69	4.04103
21.7	4.02393
21.71	4.04761
21.72	4.01932
21.73	4.04136
21.74	4.06011
21.75	4.03577
21.76	4.0509
21.77	4.01439
21.78	4.02031
21.79	4.04005
21.8	4.05288
21.81	4.02985
21.82	4.0463
21.83	4.02722
21.84	4.02426
21.85	4.02195
21.86	4.03972
21.87	4.05386
21.88	4.04235
21.89	4.0565
21.9	4.02755
21.91	4.01044
21.92	4.0713
21.93	4.02327
21.94	4.02853
21.95	4.03544
21.96	4.04597
21.97	4.04202
21.98	4.05123
21.99	4.03511
22	4.03281
22.01	4.01044
22.02	4.04893
22.03	4.03215
22.04	4.05946
22.05	4.03807
22.06	4.04597
22.07	4.01603
22.08	4.04071
22.09	4.03149
22.1	4.02919
22.11	4.03577
22.12	4.05288
22.13	4.07623
22.14	4.05913
22.15	4.03248
22.16	4.00682
22.17	4.00057
22.18	4.02886
22.19	4.05255
22.2	4.03643
22.21	4.00649
22.22	4.04202
22.23	4.02492
22.24	4.02623
22.25	4.02524
22.26	4.04893
22.27	4.06571
22.28	4.02327
22.29	4.02656
22.3	4.05551
22.31	4.07492
22.32	4.0259
22.33	4.02853
22.34	4.04465
22.35	4.04728
22.36	4.06209
22.37	4.08018
22.38	4.0361
22.39	4.0111
22.4	4.02064
22.41	4.02097
22.42	4.03643
22.43	4.03084
22.44	4.05584
22.45	4.03906
22.46	4.0134
22.47	4.03709
22.48	4.08347
22.49	4.07097
22.5	4.07097
22.51	4.0486
22.52	4.03774
22.53	4.03873
22.54	4.01143
22.55	4.01406
22.56	4.04926
22.57	4.0259
22.58	4.01801
22.59	4.00452
22.6	4.00945
22.61	4.06307
22.62	4.06011
22.63	4.04235
22.64	4.05452
22.65	4.02261
22.66	3.9907
22.67	4.04432
22.68	4.04465
22.69	4.06275
22.7	4.04465
22.71	4.01801
22.72	4.00551
22.73	4.00649
22.74	4.05321
22.75	4.03544
22.76	4.01373
22.77	4.04005
22.78	4.04071
22.79	4.05518
22.8	4.03544
22.81	4.04301
22.82	4.04071
22.83	4.03544
22.84	4.02886
22.85	4.06965
22.86	4.05617
22.87	4.03149
22.88	4.04103
22.89	4.02064
22.9	4.06867
22.91	4.01801
22.92	4.0759
22.93	4.06932
22.94	4.07492
22.95	4.03544
22.96	4.00945
22.97	4.0236
22.98	4.04926
22.99	4.03281
23	3.9963
23.01	4.01702
23.02	4.07821
23.03	4.03511
23.04	4.03742
23.05	4.05123
23.06	4.03807
23.07	4.01932
23.08	4.01834
23.09	4.03149
23.1	4.01505
23.11	4.04038
23.12	4.05025
23.13	4.06275
23.14	4.05682
23.15	4.01505
23.16	4.03446
23.17	4.02064
23.18	4.0236
23.19	4.02327
23.2	4.02426
23.21	4.02492
23.22	4.05123
23.23	4.06406
23.24	4.02985
23.25	4.04202
23.26	4.04761
23.27	4.044
23.28	4.06209
23.29	4.03248
23.3	4.0259
23.31	4.04531
23.32	4.03248
23.33	4.03051
23.34	4.03544
23.35	4.02294
23.36	4.01143
23.37	4.05123
23.38	4.06176
23.39	4.00057
23.4	3.98906
23.41	4.02821
23.42	4.01998
23.43	4.03577
23.44	4.05156
23.45	4.06044
23.46	4.094
23.47	4.03347
23.48	4.04367
23.49	4.03774
23.5	4.08544
23.51	4.05518
23.52	4.03084
23.53	4.02886
23.54	4.02821
23.55	4.044
23.56	4.02853
23.57	4.04597
23.58	4.04663
23.59	4.02524
23.6	4.03248
23.61	4.09071
23.62	4.06998
23.63	4.01965
23.64	4.00485
23.65	4.02722
23.66	3.9986
23.67	4.01735
23.68	4.08018
23.69	4.04465
23.7	4.03182
23.71	4.02755
23.72	4.02985
23.73	4.05321
23.74	4.04038
23.75	4.01669
23.76	4.01867
23.77	4.03906
23.78	4.04794
23.79	4.0509
23.8	4.05321
23.81	4.04005
23.82	4.03215
23.83	3.99169
23.84	3.99728
23.85	4.02064
23.86	4.03478
23.87	4.04893
23.88	4.01702
23.89	4.02064
23.9	4.02064
23.91	4.00945
23.92	4.01143
23.93	4.01834
23.94	4.03807
23.95	4.02952
23.96	4.03446
23.97	4.01242
23.98	4.01143
23.99	4.03182
24	4.01307
24.01	4.02524
24.02	4.01735
24.03	4.03972
24.04	4.03511
24.05	3.9986
24.06	4.02195
24.07	4.01867
24.08	4.06472
24.09	4.0588
24.1	4.02755
24.11	4.07722
24.12	4.00847
24.13	4.01307
24.14	4.04103
24.15	4.00649
24.16	4.02327
24.17	4.05551
24.18	4.04136
24.19	4.03314
24.2	4.02952
24.21	4.00551
24.22	3.99564
24.23	4.00847
24.24	4.03478
24.25	4.03281
24.26	4.02952
24.27	4.04103
24.28	4.04301
24.29	4.04761
24.3	4.06538
24.31	4.02788
24.32	4.0009
24.33	4.04663
24.34	4.03511
24.35	4.00156
24.36	3.98544
24.37	4.0032
24.38	3.95254
24.39	4.01373
24.4	4.03939
24.41	4.04169
24.42	4.04564
24.43	4.0384
24.44	4.04235
24.45	4.02919
24.46	4.02459
24.47	4.03281
24.48	4.06176
24.49	4.05452
24.5	4.03906
24.51	4.03807
24.52	4.01768
24.53	4.03742
24.54	4.03939
24.55	4.01538
24.56	4.05156
24.57	4.02919
24.58	3.99761
24.59	4.05485
24.6	4.07821
24.61	4.05025
24.62	4.02919
24.63	4.04038
24.64	4.04696
24.65	3.99663
24.66	4.05781
24.67	4.0463
24.68	4.06538
24.69	4.0611
24.7	4.044
24.71	4.03577
24.72	4.03873
24.73	4.03182
24.74	4.01735
24.75	4.03478
24.76	3.99235
24.77	3.99498
24.78	4.05979
24.79	4.04794
24.8	4.02492
24.81	4.02919
24.82	4.02689
24.83	4.00616
24.84	4.04696
24.85	4.02097
24.86	4.0361
24.87	4.03544
24.88	4.04728
24.89	4.04301
24.9	4.0111
24.91	4.03281
24.92	4.05946
24.93	4.03281
24.94	4.03709
24.95	4.03051
24.96	3.99465
24.97	4.03117
24.98	4.02492
24.99	4.03149
25	4.02788
25.01	4.04959
25.02	4.07919
25.03	4.03149
25.04	4.02722
25.05	4.04038
25.06	4.03051
25.07	4.01998
25.08	4.04103
25.09	4.01702
25.1	3.9963
25.11	4.06373
25.12	4.03643
25.13	4.00452
25.14	4.02228
25.15	4.04202
25.16	4.03873
25.17	4.0486
25.18	4.03314
25.19	4.03215
25.2	4.05946
25.21	4.05057
25.22	4.07294
25.23	4.05123
25.24	4.05222
25.25	4.06011
25.26	4.07492
25.27	4.05781
25.28	4.03577
25.29	4.02821
25.3	4.05156
25.31	4.04334
25.32	4.02689
25.33	4.00057
25.34	4.00847
25.35	4.00584
25.36	4.02261
25.37	4.0611
25.38	4.0213
25.39	4.03281
25.4	3.98873
25.41	4.01735
25.42	4.01472
25.43	4.06406
25.44	3.99498
25.45	4.02097
25.46	4.03446
25.47	3.98972
25.48	4.02459
25.49	4.06011
25.5	4.06472
25.51	4.03478
25.52	4.01373
25.53	3.98544
25.54	4.00288
25.55	3.99301
25.56	4.03742
25.57	4.0236
25.58	4.02261
25.59	4.06735
25.6	4.02163
25.61	4.07327
25.62	4.04432
25.63	4.0384
25.64	3.99926
25.65	3.99761
25.66	4.03018
25.67	4.03774
25.68	4.01307
25.69	4.04071
25.7	4.03577
25.71	4.0384
25.72	4.06143
25.73	4.01998
25.74	4.00024
25.75	4.0338
25.76	4.01965
25.77	4.00386
25.78	4.02919
25.79	4.06077
25.8	4.03215
25.81	4.05551
25.82	4.05386
25.83	4.05222
25.84	4.06768
25.85	4.0236
25.86	3.99728
25.87	4.0486
25.88	3.99136
25.89	4.00814
25.9	4.03084
25.91	4.05288
25.92	4.01899
25.93	4.03577
25.94	4.02623
25.95	3.99169
25.96	3.99893
25.97	4.00255
25.98	4.01406
25.99	4.03939
26	4.02294
26.01	4.01801
26.02	4.03478
26.03	4.0384
26.04	4.00518
26.05	4.00452
26.06	4.04794
26.07	4.00156
26.08	3.99695
26.09	4.03742
26.1	4.02886
26.11	4.0213
26.12	4.01209
26.13	4.03643
26.14	4.02985
26.15	4.00978
26.16	4.01669
26.17	3.98544
26.18	4.02031
26.19	4.02722
26.2	3.99991
26.21	4.03084
26.22	4.06044
26.23	4.00945
26.24	4.03939
26.25	4.01867
26.26	4.06571
26.27	4.01143
26.28	4.05353
26.29	4.03511
26.3	4.0259
26.31	4.02327
26.32	4.03413
26.33	4.06932
26.34	4.0509
26.35	4.03413
26.36	3.99728
26.37	4.03478
26.38	4.04169
26.39	4.03544
26.4	4.07492
26.41	4.05617
26.42	4.02524
26.43	3.99103
26.44	4.03939
26.45	4.04498
26.46	3.99597
26.47	4.01439
26.48	4.03807
26.49	4.04531
26.5	4.00715
26.51	4.01899
26.52	4.03084
26.53	4.02163
26.54	3.99597
26.55	4.00847
26.56	4.02426
26.57	4.01274
26.58	4.04893
26.59	4.01965
26.6	4.01735
26.61	4.02755
26.62	4.01242
26.63	4.00156
26.64	4.00485
26.65	4.00781
26.66	4.04893
26.67	4.05321
26.68	4.03051
26.69	4.03182
26.7	4.02821
26.71	4.03314
26.72	4.04202
26.73	4.01307
26.74	4.03873
26.75	4.01307
26.76	4.01735
26.77	4.02919
26.78	4.03413
26.79	4.01077
26.8	4.03577
26.81	4.03182
26.82	4.00748
26.83	4.02426
26.84	4.06768
26.85	4.01077
26.86	4.02195
26.87	4.05847
26.88	4.03281
26.89	4.02163
26.9	4.0157
26.91	4.05353
26.92	4.04268
26.93	4.00814
26.94	4.04334
26.95	4.05419
26.96	4.06275
26.97	4.02393
26.98	4.01077
26.99	4.00978
27	4.03117
27.01	4.0088
27.02	4.0236
27.03	3.99695
27.04	4.0032
27.05	4.00781
27.06	4.00386
27.07	4.03446
27.08	4.05518
27.09	4.05419
27.1	3.98709
27.11	4.03182
27.12	4.02755
27.13	4.01077
27.14	4.05617
27.15	4.04893
27.16	3.99663
27.17	4.01143
27.18	4.0111
27.19	4.00978
27.2	4.03281
27.21	4.02919
27.22	4.03314
27.23	4.04564
27.24	4.00386
27.25	4.00024
27.26	4.02031
27.27	4.01439
27.28	3.9963
27.29	4.03906
27.3	4.07261
27.31	3.99959
27.32	4.01176
27.33	4.01439
27.34	4.00551
27.35	4.00452
27.36	4.00551
27.37	4.03742
27.38	3.99465
27.39	3.99794
27.4	4.02755
27.41	4.02524
27.42	4.04597
27.43	4.03643
27.44	4.01505
27.45	4.02459
27.46	4.02623
27.47	4.02853
27.48	4.03742
27.49	4.01768
27.5	4.03347
27.51	4.08775
27.52	4.05682
27.53	4.044
27.54	4.0236
27.55	4.05025
27.56	4.03709
27.57	4.044
27.58	4.04827
27.59	4.04827
27.6	4.02031
27.61	4.03774
27.62	4.0259
27.63	4.02426
27.64	4.01735
27.65	4.0032
27.66	4.00288
27.67	4.02557
27.68	3.99959
27.69	4.04432
27.7	4.05748
27.71	4.01702
27.72	4.00847
27.73	4.08183
27.74	4.03248
27.75	4.01472
27.76	4.02261
27.77	4.00452
27.78	4.03906
27.79	3.96932
27.8	4.02557
27.81	4.01242
27.82	4.01274
27.83	4.01505
27.84	4.03972
27.85	4.02261
27.86	4.01077
27.87	3.99498
27.88	4.05682
27.89	4.0509
27.9	4.04334
27.91	4.04071
27.92	4.03215
27.93	4.01406
27.94	4.04367
27.95	4.04465
27.96	4.01965
27.97	4.01077
27.98	4.04696
27.99	4.04794
28	4.04202
28.01	4.00386
28.02	4.04169
28.03	4.00978
28.04	4.02524
28.05	4.01373
28.06	4.0259
28.07	4.03478
28.08	4.03018
28.09	4.02031
28.1	4.0259
28.11	4.00255
28.12	4.01998
28.13	4.02261
28.14	4.03051
28.15	4.01899
28.16	4.02393
28.17	4.03446
28.18	4.03149
28.19	4.00057
28.2	4.01801
28.21	4.02689
28.22	4.04202
28.23	4.04071
28.24	4.01472
28.25	4.00288
28.26	3.98084
28.27	4.01011
28.28	4.0157
28.29	4.05419
28.3	4.04597
28.31	4.02985
28.32	3.98939
28.33	3.99597
28.34	3.9588
28.35	3.97557
28.36	3.98511
28.37	4.01603
28.38	4.03544
28.39	4.03413
28.4	4.02821
28.41	4.02821
28.42	3.99926
28.43	4.01998
28.44	4.04465
28.45	4.01669
28.46	4.02952
28.47	4.01801
28.48	4.01044
28.49	4.04103
28.5	4.04498
28.51	4.04827
28.52	4.01538
28.53	4.01603
28.54	4.02261
28.55	3.99827
28.56	4.02689
28.57	4.03281
28.58	4.02853
28.59	4.00024
28.6	4.02459
28.61	4.03873
28.62	4.0236
28.63	4.01768
28.64	4.0486
28.65	4.02294
28.66	3.97985
28.67	4.00913
28.68	4.00189
28.69	4.01669
28.7	4.00353
28.71	3.99926
28.72	4.03018
28.73	4.01274
28.74	3.99202
28.75	3.99991
28.76	4.02557
28.77	3.99893
28.78	4.0157
28.79	3.98511
28.8	4.02426
28.81	4.0032
28.82	4.01011
28.83	4.00584
28.84	4.044
28.85	4.04597
28.86	4.02031
28.87	4.02459
28.88	4.0157
28.89	4.04301
28.9	4.0088
28.91	4.0111
28.92	4.0157
28.93	4.05979
28.94	4.0134
28.95	4.01538
28.96	3.99761
28.97	4.00485
28.98	3.97195
28.99	3.98807
29	4.02985
29.01	4.01373
29.02	4.03939
29.03	4.02261
29.04	4.0486
29.05	4.06867
29.06	4.0486
29.07	3.98544
29.08	4.01307
29.09	4.05255
29.1	4.03314
29.11	4.03117
29.12	4.01965
29.13	4.0009
29.14	4.01998
29.15	4.03511
29.16	4.04005
29.17	4.05156
29.18	4.0157
29.19	4.03215
29.2	4.00584
29.21	4.03182
29.22	4.06373
29.23	4.04531
29.24	4.02952
29.25	4.01834
29.26	4.00057
29.27	3.99465
29.28	4.02985
29.29	4.03676
29.3	4.01834
29.31	4.0111
29.32	4.04761
29.33	4.01932
29.34	4.02261
29.35	4.01735
29.36	4.03939
29.37	4.0213
29.38	4.01899
29.39	4.0134
29.4	4.03248
29.41	4.04432
29.42	4.02524
29.43	4.02886
29.44	4.01472
29.45	3.9986
29.46	4.0032
29.47	3.99334
29.48	4.03051
29.49	4.02228
29.5	4.00847
29.51	4.04893
29.52	4.03906
29.53	4.0361
29.54	3.97886
29.55	3.99926
29.56	4.02886
29.57	4.01538
29.58	3.99366
29.59	4.02228
29.6	4.069
29.61	4.01472
29.62	4.02163
29.63	4.02327
29.64	4.01603
29.65	4.03281
29.66	4.0486
29.67	4.05485
29.68	4.01439
29.69	4.04071
29.7	4.03051
29.71	4.03939
29.72	4.01735
29.73	4.00419
29.74	4.02327
29.75	4.02557
29.76	4.00057
29.77	4.02755
29.78	4.02656
29.79	4.00649
29.8	4.04268
29.81	4.04367
29.82	3.99827
29.83	4.01439
29.84	4.02097
29.85	4.01899
29.86	4.01472
29.87	4.02919
29.88	4.05025
29.89	4.01209
29.9	3.99959
29.91	4.02031
29.92	4.03742
29.93	4.01965
29.94	4.02294
29.95	4.02261
29.96	4.03314
29.97	4.01209
29.98	4.00847
29.99	4.00353
30	3.96636
30.01	4.01965
30.02	4.03182
30.03	4.01702
30.04	4.07854
30.05	4.04334
30.06	3.99959
30.07	4.01406
30.08	4.00847
30.09	4.02788
30.1	4.00748
30.11	4.03709
30.12	4.03182
30.13	4.02393
30.14	4.044
30.15	4.02656
30.16	4.00682
30.17	3.98939
30.18	4.0032
30.19	4.03018
30.2	4.0384
30.21	4.04071
30.22	4.0157
30.23	4.01834
30.24	3.99761
30.25	4.03117
30.26	4.02919
30.27	3.98347
30.28	4.00485
30.29	3.99926
30.3	4.01735
30.31	4.00945
30.32	4.00288
30.33	3.97459
30.34	4.0088
30.35	4.05057
30.36	4.01472
30.37	3.99268
30.38	4.00584
30.39	4.00715
30.4	4.01044
30.41	4.04597
30.42	4.03281
30.43	4.00682
30.44	4.02195
30.45	4.02064
30.46	4.00781
30.47	4.03314
30.48	4.01801
30.49	3.97491
30.5	4.0088
30.51	4.0384
30.52	4.01702
30.53	4.04959
30.54	4.03939
30.55	4.03018
30.56	4.02426
30.57	4.03215
30.58	4.06735
30.59	4.01143
30.6	4.02722
30.61	4.01735
30.62	4.01176
30.63	4.02952
30.64	4.03215
30.65	4.02821
30.66	3.9532
30.67	3.99926
30.68	4.02524
30.69	4.03117
30.7	4.06077
30.71	4.05781
30.72	4.01768
30.73	4.03511
30.74	4.03281
30.75	3.9759
30.76	3.95715
30.77	3.98939
30.78	4.00189
30.79	3.9986
30.8	4.02788
30.81	4.0111
30.82	3.99334
30.83	4.00386
30.84	4.04202
30.85	4.03084
30.86	4.0157
30.87	4.00419
30.88	4.00682
30.89	4.01011
30.9	4.01439
30.91	3.99465
30.92	4.01044
30.93	4.00945
30.94	4.03709
30.95	4.0157
30.96	4.00123
30.97	4.02393
30.98	4.04005
30.99	4.04564
31	4.04169
31.01	4.05715
31.02	4.0157
31.03	3.98873
31.04	3.99959
31.05	4.02821
31.06	3.99235
31.07	4.03709
31.08	4.00452
31.09	3.99827
31.1	4.06044
31.11	4.03873
31.12	4.05979
31.13	4.01998
31.14	3.97985
31.15	3.99794
31.16	3.99498
31.17	4.04432
31.18	4.04136
31.19	4.02228
31.2	4.02294
31.21	4.00123
31.22	3.98084
31.23	4.02195
31.24	4.01669
31.25	4.02031
31.26	4.01011
31.27	4.02557
31.28	4.02426
31.29	3.9588
31.3	4.01899
31.31	4.05222
31.32	4.02426
31.33	4.01077
31.34	4.0361
31.35	3.99399
31.36	4.01274
31.37	4.02294
31.38	4.00913
31.39	4.00156
31.4	4.02031
31.41	4.0111
31.42	4.01702
31.43	4.00057
31.44	4.01077
31.45	4.01801
31.46	4.02755
31.47	3.99465
31.48	4.05781
31.49	4.03281
31.5	4.01702
31.51	3.98478
31.52	4.00518
31.53	3.99991
31.54	4.00419
31.55	4.01307
31.56	4.02952
31.57	4.03314
31.58	4.03972
31.59	3.9884
31.6	4.01176
31.61	3.99991
31.62	3.97689
31.63	4.02524
31.64	4.01307
31.65	4.00518
31.66	4.02097
31.67	4.04235
31.68	4.02689
31.69	3.9838
31.7	4.02722
31.71	4.01143
31.72	4.0259
31.73	4.02459
31.74	4.03709
31.75	3.98939
31.76	4.00584
31.77	4.01406
31.78	3.9963
31.79	4.0213
31.8	3.98577
31.81	4.00189
31.82	4.02788
31.83	3.96702
31.84	4.00353
31.85	4.05617
31.86	3.98511
31.87	4.01702
31.88	3.99202
31.89	4.03149
31.9	4.04926
31.91	4.02195
31.92	4.00518
31.93	4.01505
31.94	4.01603
31.95	4.00123
31.96	3.99597
31.97	3.99794
31.98	4.01143
31.99	4.00353
32	4.01538
32.01	4.00255
32.02	4.0032
32.03	4.05353
32.04	4.03413
32.05	4.03117
32.06	4.01439
32.07	4.05682
32.08	4.05847
32.09	4.02557
32.1	4.02985
32.11	4.00682
32.12	4.02524
32.13	4.0111
32.14	4.00485
32.15	3.97722
32.16	3.96833
32.17	4.02228
32.18	3.99728
32.19	4.00584
32.2	4.02853
32.21	3.99498
32.22	4.00024
32.23	4.01011
32.24	4.00945
32.25	4.03873
32.26	3.97656
32.27	3.95024
32.28	3.95123
32.29	4.0088
32.3	3.99498
32.31	4.00123
32.32	4.02195
32.33	3.98149
32.34	3.96143
32.35	3.99038
32.36	3.98709
32.37	4.01044
32.38	3.99498
32.39	4.01603
32.4	4.03182
32.41	4.0509
32.42	4.03314
32.43	3.9963
32.44	3.99663
32.45	4.0032
32.46	3.97787
32.47	4.02031
32.48	4.00353
32.49	4.00222
32.5	4.02064
32.51	4.0213
32.52	4.02689
32.53	4.00682
32.54	4.00616
32.55	3.9963
32.56	4.03873
32.57	4.03544
32.58	4.00814
32.59	4.01307
32.6	4.00386
32.61	4.00682
32.62	4.02393
32.63	3.99761
32.64	4.00156
32.65	4.05057
32.66	4.0611
32.67	4.02788
32.68	4.01176
32.69	3.99005
32.7	4.01406
32.71	4.04367
32.72	4.02031
32.73	4.01965
32.74	4.03281
32.75	4.0157
32.76	4.00057
32.77	4.01077
32.78	3.99235
32.79	4.01932
32.8	4.05222
32.81	4.08183
32.82	4.02919
32.83	4.01274
32.84	4.01044
32.85	4.00616
32.86	3.98051
32.87	3.97294
32.88	3.97294
32.89	4.00419
32.9	3.97886
32.91	4.01998
32.92	4.07327
32.93	4.05781
32.94	4.0259
32.95	4.03906
32.96	4.04235
32.97	4.01176
32.98	4.02853
32.99	4.03544
33	4.03774
33.01	4.02163
33.02	4.00419
33.03	4.0088
33.04	3.99827
33.05	3.98248
33.06	4.00353
33.07	4.01406
33.08	4.03544
33.09	4.02492
33.1	4.00419
33.11	3.98643
33.12	4.0032
33.13	4.0009
33.14	4.01834
33.15	4.01669
33.16	4.02195
33.17	4.00057
33.18	4.03281
33.19	3.98906
33.2	3.96537
33.21	4.00255
33.22	4.03774
33.23	4.04038
33.24	4.044
33.25	4.00386
33.26	4.00518
33.27	4.02261
33.28	4.00123
33.29	4.02952
33.3	3.99926
33.31	4.01702
33.32	4.03248
33.33	3.99038
33.34	4.01867
33.35	4.01274
33.36	3.96735
33.37	3.9884
33.38	4.0088
33.39	4.03774
33.4	4.00386
33.41	4.01932
33.42	3.98676
33.43	3.99268
33.44	4.03742
33.45	4.01011
33.46	4.00715
33.47	4.04334
33.48	4.00978
33.49	3.99564
33.5	4.01439
33.51	4.01242
33.52	4.03149
33.53	4.04136
33.54	4.00814
33.55	3.98544
33.56	4.00978
33.57	4.00156
33.58	4.00353
33.59	4.01669
33.6	4.01209
33.61	3.99794
33.62	3.98709
33.63	4.02031
33.64	4.04005
33.65	4.01735
33.66	3.97722
33.67	3.96208
33.68	3.95551
33.69	4.00551
33.7	4.04301
33.71	4.03347
33.72	4.01505
33.73	4.02623
33.74	4.02557
33.75	4.00123
33.76	3.99498
33.77	4.00123
33.78	4.00682
33.79	3.99991
33.8	4.01801
33.81	4.01077
33.82	3.99728
33.83	4.01735
33.84	3.96537
33.85	3.96866
33.86	4.01768
33.87	3.98182
33.88	4.0009
33.89	3.99268
33.9	3.99991
33.91	3.96011
33.92	3.99991
33.93	3.99959
33.94	3.99531
33.95	3.98412
33.96	3.99531
33.97	4.02788
33.98	4.02163
33.99	3.95715
34	4.00781
34.01	4.03314
34.02	4.01768
34.03	3.98873
34.04	3.97064
34.05	4.02952
34.06	3.98676
34.07	4.01505
34.08	4.01472
34.09	4.03347
34.1	4.01867
34.11	4.01867
34.12	4.03643
34.13	4.0134
34.14	4.01011
34.15	4.00189
34.16	4.02952
34.17	4.02689
34.18	4.04893
34.19	4.02524
34.2	4.02294
34.21	4.02985
34.22	4.02623
34.23	4.00189
34.24	4.01735
34.25	4.02985
34.26	4.03511
34.27	4.01669
34.28	4.04301
34.29	3.97722
34.3	3.99597
34.31	4.01274
34.32	3.9884
34.33	4.01406
34.34	4.02821
34.35	4.02097
34.36	4.0213
34.37	4.0111
34.38	3.98445
34.39	3.98906
34.4	3.99991
34.41	3.99728
34.42	3.99794
34.43	4.00386
34.44	3.98116
34.45	4.02788
34.46	4.05189
34.47	4.00353
34.48	3.97919
34.49	4.01077
34.5	4.00551
34.51	4.00386
34.52	4.00715
34.53	4.04334
34.54	4.01998
34.55	4.02064
34.56	4.02459
34.57	4.03149
34.58	3.97656
34.59	3.99432
34.6	4.02689
34.61	4.01965
34.62	4.01899
34.63	4.02886
34.64	4.01768
34.65	4.0213
34.66	4.04728
34.67	4.02064
34.68	3.98478
34.69	4.01176
34.7	4.02064
34.71	3.97459
34.72	3.97722
34.73	4.02722
34.74	3.99432
34.75	4.00024
34.76	4.0134
34.77	4.00222
34.78	3.97459
34.79	4.00715
34.8	3.99991
34.81	4.00551
34.82	4.03709
34.83	4.00978
34.84	4.00024
34.85	4.03709
34.86	4.05452
34.87	3.97689
34.88	3.99465
34.89	3.99366
34.9	4.00057
34.91	3.98511
34.92	3.98676
34.93	4.04696
34.94	4.02163
34.95	4.01834
34.96	4.02228
34.97	4.03117
34.98	3.99893
34.99	4.01373
35	4.0009
35.01	3.99597
35.02	3.96208
35.03	3.99597
35.04	4.0384
35.05	4.04926
35.06	4.02788
35.07	4.01505
35.08	4.04202
35.09	4.02163
35.1	4.02261
35.11	4.02853
35.12	4.01801
35.13	3.97491
35.14	3.96866
35.15	4.00715
35.16	4.00616
35.17	4.00386
35.18	4.00649
35.19	3.98972
35.2	4.02294
35.21	4.01406
35.22	4.00945
35.23	4.03051
35.24	3.98478
35.25	3.99498
35.26	4.01209
35.27	4.01768
35.28	3.99926
35.29	3.99202
35.3	4.01768
35.31	4.02557
35.32	4.03281
35.33	3.99893
35.34	4.02294
35.35	3.99564
35.36	3.96833
35.37	4.00814
35.38	3.97393
35.39	3.98873
35.4	4.04103
35.41	4.0384
35.42	4.00978
35.43	4.01702
35.44	3.99959
35.45	4.02886
35.46	4.03709
35.47	4.0157
35.48	4.0157
35.49	3.97919
35.5	4.01636
35.51	4.03215
35.52	4.03149
35.53	4.02952
35.54	4.07656
35.55	3.99761
35.56	3.97689
35.57	4.03084
35.58	4.0236
35.59	4.00386
35.6	3.98116
35.61	4.01735
35.62	4.00814
35.63	4.0611
35.64	4.00057
35.65	3.98511
35.66	4.03577
35.67	4.0213
35.68	3.96998
35.69	4.01603
35.7	3.97853
35.71	3.99103
35.72	4.0032
35.73	4.0259
35.74	3.98511
35.75	3.97393
35.76	3.96636
35.77	3.96801
35.78	3.98906
35.79	4.02228
35.8	3.99202
35.81	4.00024
35.82	4.03281
35.83	4.06307
35.84	4.01406
35.85	4.00748
35.86	4.00024
35.87	4.01636
35.88	3.98676
35.89	4.00189
35.9	3.99564
35.91	4.04136
35.92	4.02426
35.93	4.02228
35.94	3.98939
35.95	4.04465
35.96	4.01636
35.97	4.04235
35.98	4.0009
35.99	3.99366
36	3.98807
36.01	3.99663
36.02	4.02985
36.03	4.04071
36.04	4.00353
36.05	4.01307
36.06	3.99465
36.07	4.01834
36.08	3.9963
36.09	4.00748
36.1	4.01932
36.11	4.03051
36.12	4.00189
36.13	4.0259
36.14	4.00715
36.15	3.98741
36.16	4.00748
36.17	4.02689
36.18	4.00616
36.19	3.98412
36.2	4.02557
36.21	4.01998
36.22	4.0213
36.23	4.01077
36.24	4.00123
36.25	4.00123
36.26	4.00353
36.27	3.98182
36.28	3.97919
36.29	4.01636
36.3	4.02689
36.31	4.01867
36.32	4.02524
36.33	4.03281
36.34	4.01834
36.35	4.03018
36.36	4.00123
36.37	4.01143
36.38	3.98643
36.39	3.99268
36.4	3.98873
36.41	3.98807
36.42	3.98051
36.43	4.00616
36.44	4.01669
36.45	4.03182
36.46	4.0259
36.47	4.03215
36.48	4.02393
36.49	4.00814
36.5	3.9838
36.51	3.95156
36.52	4.00123
36.53	4.0032
36.54	4.02426
36.55	4.04202
36.56	4.02952
36.57	3.99136
36.58	3.99202
36.59	4.02228
36.6	3.99399
36.61	4.02294
36.62	4.01011
36.63	4.01307
36.64	3.97787
36.65	4.05189
36.66	4.01932
36.67	3.99893
36.68	3.98511
36.69	4.00419
36.7	3.99728
36.71	4.00814
36.72	4.00222
36.73	4.00386
36.74	3.99169
36.75	4.01439
36.76	3.99728
36.77	3.96406
36.78	3.98018
36.79	4.02886
36.8	3.96965
36.81	3.9838
36.82	4.03051
36.83	4.01867
36.84	3.97985
36.85	4.00189
36.86	4.0009
36.87	4.00353
36.88	3.98774
36.89	4.00485
36.9	4.03347
36.91	3.99926
36.92	4.02524
36.93	3.99663
36.94	4.0384
36.95	3.98906
36.96	4.01505
36.97	4.02755
36.98	4.01472
36.99	3.98939
37	3.99399
37.01	4.01143
37.02	3.99169
37.03	3.96505
37.04	3.99136
37.05	3.96208
37.06	4.03807
37.07	3.99301
37.08	3.94465
37.09	4.00978
37.1	3.99268
37.11	3.97886
37.12	3.9759
37.13	3.97689
37.14	4.01044
37.15	3.98873
37.16	3.9907
37.17	3.96866
37.18	3.99202
37.19	4.00222
37.2	3.98084
37.21	4.00255
37.22	4.00419
37.23	4.01307
37.24	3.9907
37.25	3.98906
37.26	4.04136
37.27	4.00945
37.28	4.00452
37.29	4.02492
37.3	4.02459
37.31	4.00156
37.32	3.99301
37.33	4.01603
37.34	4.04432
37.35	4.01307
37.36	3.99103
37.37	4.00485
37.38	3.99959
37.39	3.9838
37.4	3.96998
37.41	3.97162
37.42	4.01735
37.43	4.01011
37.44	3.97886
37.45	4.00945
37.46	4.01274
37.47	3.99005
37.48	3.97327
37.49	3.98281
37.5	4.00518
37.51	3.99301
37.52	3.98051
37.53	4.02393
37.54	4.01603
37.55	4.02097
37.56	3.97886
37.57	4.01899
37.58	4.00518
37.59	4.00814
37.6	4.01538
37.61	4.01307
37.62	3.98281
37.63	3.96702
37.64	3.97985
37.65	3.99005
37.66	4.01044
37.67	4.00978
37.68	3.99959
37.69	3.97656
37.7	4.01768
37.71	4.00715
37.72	4.01439
37.73	3.96965
37.74	4.00551
37.75	4.00288
37.76	3.99728
37.77	3.97228
37.78	3.98741
37.79	4.01209
37.8	3.99498
37.81	3.97853
37.82	4.01242
37.83	3.99695
37.84	4.02327
37.85	3.99959
37.86	4.0157
37.87	4.01702
37.88	3.9861
37.89	4.0111
37.9	3.97327
37.91	4.03873
37.92	3.97985
37.93	3.96866
37.94	3.94991
37.95	4.00057
37.96	4.00682
37.97	4.02492
37.98	4.07788
37.99	4.02722
38	4.01636
38.01	3.99959
38.02	3.99005
38.03	4.02261
38.04	4.01209
38.05	4.04268
38.06	4.02492
38.07	4.01801
38.08	4.02459
38.09	3.98314
38.1	3.9782
38.11	4.0259
38.12	4.00945
38.13	4.00057
38.14	4.02327
38.15	4.00288
38.16	4.01011
38.17	3.9963
38.18	4.00715
38.19	4.01242
38.2	3.98939
38.21	4.00222
38.22	4.0134
38.23	4.02064
38.24	4.00386
38.25	4.02163
38.26	4.0384
38.27	3.97459
38.28	4.0134
38.29	4.00288
38.3	4.00978
38.31	4.02294
38.32	4.01636
38.33	3.98577
38.34	4.01834
38.35	3.99597
38.36	4.02985
38.37	4.04696
38.38	4.0213
38.39	4.02097
38.4	4.01176
38.41	4.01373
38.42	4.00057
38.43	3.9782
38.44	3.99399
38.45	4.00682
38.46	3.99103
38.47	4.00814
38.48	3.97722
38.49	3.9986
38.5	4.04531
38.51	4.01867
38.52	3.96669
38.53	4.00945
38.54	3.99038
38.55	3.99005
38.56	4.01176
38.57	4.03248
38.58	3.99663
38.59	4.0032
38.6	3.97491
38.61	3.9736
38.62	3.98248
38.63	3.99005
38.64	4.0009
38.65	4.04992
38.66	4.0134
38.67	4.01505
38.68	3.9759
38.69	3.99432
38.7	4.00518
38.71	4.00847
38.72	4.01307
38.73	4.03314
38.74	4.04235
38.75	4.01702
38.76	3.99235
38.77	4.01669
38.78	4.0134
38.79	4.02557
38.8	3.99926
38.81	4.01801
38.82	4.00156
38.83	3.98281
38.84	4.01867
38.85	4.0157
38.86	3.99103
38.87	4.05781
38.88	4.01768
38.89	3.98676
38.9	4.03774
38.91	4.01373
38.92	3.97722
38.93	4.00024
38.94	3.99531
38.95	4.0111
38.96	4.02163
38.97	4.02755
38.98	4.02524
38.99	3.99761
39	4.00847
39.01	3.99827
39.02	4.0157
39.03	4.0088
39.04	3.97919
39.05	4.01077
39.06	4.03544
39.07	4.01406
39.08	3.99202
39.09	3.98511
39.1	4.02788
39.11	4.03314
39.12	3.99301
39.13	4.01867
39.14	4.01867
39.15	3.95452
39.16	3.97952
39.17	4.02327
39.18	3.98741
39.19	4.03182
39.2	4.00847
39.21	4.02393
39.22	4.04992
39.23	4.02097
39.24	4.01768
39.25	4.03182
39.26	4.01077
39.27	4.02919
39.28	4.00189
39.29	4.03347
39.3	4.01307
39.31	3.99103
39.32	4.01077
39.33	3.98412
39.34	3.98741
39.35	3.9963
39.36	4.01176
39.37	3.98741
39.38	3.98149
39.39	4.00682
39.4	4.00814
39.41	4.0009
39.42	4.00847
39.43	4.02557
39.44	4.02853
39.45	3.97524
39.46	3.98347
39.47	4.01406
39.48	4.04498
39.49	4.00682
39.5	3.95518
39.51	4.00255
39.52	3.99663
39.53	3.99235
39.54	3.96077
39.55	3.98676
39.56	3.9986
39.57	3.99926
39.58	4.00715
39.59	3.99498
39.6	4.00288
39.61	4.0157
39.62	3.99334
39.63	4.02886
39.64	3.99366
39.65	4.01472
39.66	4.00748
39.67	3.99991
39.68	4.03149
39.69	4.00123
39.7	3.99728
39.71	4.00978
39.72	4.01932
39.73	3.96965
39.74	4.02426
39.75	4.01932
39.76	4.02459
39.77	4.02426
39.78	4.01242
39.79	4.03117
39.8	4.01932
39.81	3.9963
39.82	4.00222
39.83	4.00781
39.84	4.00452
39.85	4.01472
39.86	3.99663
39.87	3.99169
39.88	4.00551
39.89	3.99926
39.9	4.01768
39.91	4.02064
39.92	3.98939
39.93	3.96702
39.94	3.99202
39.95	4.02623
39.96	4.00978
39.97	3.99103
39.98	3.99038
39.99	3.99399
40	3.9884
40.01	3.99038
40.02	4.00978
40.03	4.04597
40.04	4.01274
40.05	4.02952
40.06	3.99893
40.07	3.97755
40.08	4.00682
40.09	4.01209
40.1	4.01538
40.11	4.00649
40.12	3.99334
40.13	3.97064
40.14	3.97886
40.15	3.94597
40.16	4.01209
40.17	3.9713
40.18	4.00748
40.19	4.02064
40.2	4.01636
40.21	4.00945
40.22	3.9884
40.23	3.99038
40.24	4.02492
40.25	3.98084
40.26	4.01867
40.27	3.99926
40.28	3.9838
40.29	4.01735
40.3	3.98544
40.31	3.99761
40.32	3.99038
40.33	4.00847
40.34	4.02163
40.35	4.01636
40.36	4.04301
40.37	4.02492
40.38	4.01702
40.39	4.01636
40.4	4.04202
40.41	4.01538
40.42	3.97755
40.43	3.99366
40.44	3.98248
40.45	3.98018
40.46	4.02755
40.47	4.00189
40.48	4.0111
40.49	3.97459
40.5	4.01834
40.51	4.02064
40.52	4.01176
40.53	3.9509
40.54	3.97656
40.55	3.9963
40.56	3.98577
40.57	4.0088
40.58	4.04136
40.59	3.98807
40.6	3.98215
40.61	3.99663
40.62	4.01274
40.63	4.03643
40.64	4.00024
40.65	4.00518
40.66	4.00649
40.67	3.96373
40.68	3.97985
40.69	3.98116
40.7	4.00847
40.71	4.01801
40.72	4.00123
40.73	3.99334
40.74	3.96866
40.75	4.01274
40.76	4.03577
40.77	4.0213
40.78	3.99169
40.79	4.02524
40.8	4.00189
40.81	4.00419
40.82	4.03117
40.83	4.00353
40.84	4.00945
40.85	3.99169
40.86	4.02195
40.87	4.01373
40.88	3.97722
40.89	4.03084
40.9	4.04959
40.91	4.01735
40.92	4.03149
40.93	3.99366
40.94	3.97755
40.95	3.99399
40.96	3.97886
40.97	4.01538
40.98	4.00485
40.99	4.0259
41	4.05419
41.01	4.03182
41.02	4.00913
41.03	4.0338
41.04	4.02722
41.05	4.00057
41.06	4.02228
41.07	4.0565
41.08	4.01439
41.09	3.99235
41.1	3.99038
41.11	3.98807
41.12	3.9986
41.13	4.00945
41.14	4.0157
41.15	3.99268
41.16	4.02656
41.17	4.02261
41.18	3.98807
41.19	3.97524
41.2	4.0111
41.21	3.99926
41.22	3.98281
41.23	4.02623
41.24	4.05913
41.25	4.01702
41.26	3.99893
41.27	4.01636
41.28	4.02919
41.29	4.02623
41.3	4.02689
41.31	4.00913
41.32	3.96406
41.33	4.00847
41.34	4.01439
41.35	4.00222
41.36	4.00913
41.37	4.02228
41.38	4.01965
41.39	3.98511
41.4	3.99432
41.41	4.02459
41.42	3.99103
41.43	4.01669
41.44	4.00584
41.45	4.03149
41.46	3.98248
41.47	4.05617
41.48	4.02031
41.49	4.0009
41.5	4.00222
41.51	3.99169
41.52	4.00419
41.53	3.9713
41.54	3.97426
41.55	3.98774
41.56	3.96011
41.57	4.02886
41.58	4.03314
41.59	4.0236
41.6	4.01899
41.61	4.01406
41.62	4.01768
41.63	4.00978
41.64	3.99597
41.65	3.99136
41.66	4.00616
41.67	4.03215
41.68	4.04202
41.69	4.06077
41.7	4.01077
41.71	4.02524
41.72	4.00584
41.73	4.01209
41.74	4.02064
41.75	4.01274
41.76	3.99498
41.77	4.02031
41.78	3.99366
41.79	3.99991
41.8	3.98051
41.81	4.0009
41.82	4.05419
41.83	4.02097
41.84	3.98774
41.85	3.98248
41.86	4.01044
41.87	4.01307
41.88	4.02228
41.89	4.01636
41.9	3.99991
41.91	3.98709
41.92	3.98643
41.93	3.99432
41.94	4.02261
41.95	4.05485
41.96	4.03446
41.97	4.00288
41.98	3.98347
41.99	4.02557
42	3.96636
42.01	3.99597
42.02	4.01044
42.03	3.99827
42.04	4.00715
42.05	3.99564
42.06	3.99959
42.07	4.03248
42.08	3.99959
42.09	3.98215
42.1	4.00123
42.11	4.02393
42.12	3.99498
42.13	4.01834
42.14	3.98972
42.15	4.00649
42.16	4.00781
42.17	4.00485
42.18	4.03413
42.19	3.98577
42.2	3.97755
42.21	3.98116
42.22	4.00781
42.23	4.01538
42.24	4.01867
42.25	3.99926
42.26	3.99926
42.27	4.0236
42.28	4.03676
42.29	4.03314
42.3	4.04564
42.31	4.02492
42.32	4.01834
42.33	3.98281
42.34	4.00945
42.35	4.00353
42.36	3.99334
42.37	4.00419
42.38	3.97952
42.39	4.01209
42.4	4.01209
42.41	3.98281
42.42	4.01867
42.43	3.99663
42.44	4.05222
42.45	4.04893
42.46	4.02031
42.47	4.00288
42.48	4.02163
42.49	4.0259
42.5	4.01406
42.51	3.9963
42.52	3.99136
42.53	3.99301
42.54	3.98248
42.55	4.00616
42.56	4.00584
42.57	4.01143
42.58	4.02689
42.59	4.04005
42.6	3.99564
42.61	4.01801
42.62	4.0032
42.63	3.98643
42.64	3.99695
42.65	4.01077
42.66	4.0032
42.67	4.00288
42.68	4.01768
42.69	3.98577
42.7	3.98972
42.71	4.03643
42.72	4.07525
42.73	4.00847
42.74	3.96406
42.75	3.98774
42.76	4.00452
42.77	4.02163
42.78	4.0259
42.79	4.03182
42.8	4.03314
42.81	3.99695
42.82	4.01044
42.83	3.96899
42.84	3.98018
42.85	3.95978
42.86	3.99531
42.87	4.02393
42.88	4.03248
42.89	3.98182
42.9	4.0032
42.91	4.00682
42.92	4.00419
42.93	4.02788
42.94	3.97787
42.95	4.0213
42.96	3.98215
42.97	4.0111
42.98	4.01603
42.99	3.99465
43	3.97064
43.01	4.00452
43.02	4.00057
43.03	3.98939
43.04	3.98084
43.05	3.98182
43.06	4.01998
43.07	4.01702
43.08	4.02886
43.09	4.01899
43.1	4.00419
43.11	3.99761
43.12	3.9907
43.13	4.01307
43.14	4.01406
43.15	4.00353
43.16	4.00584
43.17	4.00584
43.18	3.95616
43.19	4.00156
43.2	4.02327
43.21	4.01932
43.22	3.94235
43.23	3.99794
43.24	4.02031
43.25	4.01209
43.26	4.0463
43.27	3.99235
43.28	3.98248
43.29	3.9986
43.3	3.98807
43.31	4.01274
43.32	3.99695
43.33	3.98478
43.34	4.03906
43.35	4.03742
43.36	4.02163
43.37	4.01867
43.38	4.03182
43.39	4.01669
43.4	4.02656
43.41	4.04794
43.42	3.99728
43.43	3.97919
43.44	4.00288
43.45	4.01998
43.46	4.06044
43.47	4.03215
43.48	3.98149
43.49	4.02985
43.5	4.02821
43.51	4.00057
43.52	3.98084
43.53	4.05156
43.54	4.00189
43.55	4.01143
43.56	3.98807
43.57	4.00288
43.58	4.01998
43.59	3.9861
43.6	4.02919
43.61	4.00255
43.62	4.03117
43.63	4.02228
43.64	4.00616
43.65	3.99399
43.66	4.00978
43.67	4.01439
43.68	4.01702
43.69	4.02886
43.7	4.00419
43.71	4.01505
43.72	3.99761
43.73	3.99761
43.74	3.99663
43.75	3.95485
43.76	4.02064
43.77	4.00616
43.78	3.97459
43.79	4.01834
43.8	4.02492
43.81	3.98511
43.82	4.00616
43.83	4.01801
43.84	4.00945
43.85	3.98676
43.86	4.01209
43.87	4.01242
43.88	3.99038
43.89	4.03117
43.9	4.03577
43.91	3.95781
43.92	3.97853
43.93	4.00682
43.94	4.04992
43.95	4.00847
43.96	3.97853
43.97	3.98643
43.98	3.98215
43.99	4.00748
44	3.96636
44.01	3.95254
44.02	3.98412
44.03	4.05189
44.04	3.99991
44.05	4.00419
44.06	4.0213
44.07	3.99399
44.08	4.02985
44.09	4.02557
44.1	4.02393
44.11	4.01538
44.12	4.01406
44.13	4.01242
44.14	4.01209
44.15	4.02492
44.16	3.9963
44.17	3.99991
44.18	4.01702
44.19	4.01274
44.2	4.01735
44.21	4.04005
44.22	4.04663
44.23	4.02853
44.24	4.00123
44.25	3.99334
44.26	4.02261
44.27	4.04103
44.28	4.01538
44.29	4.00485
44.3	3.99564
44.31	3.95452
44.32	3.9657
44.33	4.02755
44.34	3.95123
44.35	3.95781
44.36	3.98511
44.37	4.05156
44.38	4.0236
44.39	3.99268
44.4	4.04992
44.41	4.02557
44.42	4.02524
44.43	4.03149
44.44	4.00485
44.45	4.00945
44.46	4.04038
44.47	4.00847
44.48	3.99005
44.49	4.01735
44.5	3.99498
44.51	4.00255
44.52	3.99663
44.53	4.00847
44.54	4.00781
44.55	4.01176
44.56	4.0111
44.57	4.02557
44.58	4.02031
44.59	3.94301
44.6	3.98149
44.61	4.01077
44.62	3.98478
44.63	3.9907
44.64	4.01044
44.65	3.9713
44.66	3.97064
44.67	4.03051
44.68	3.98577
44.69	3.98741
44.7	3.98873
44.71	4.02426
44.72	4.01077
44.73	3.99991
44.74	4.04301
44.75	4.03774
44.76	3.98807
44.77	4.00715
44.78	3.97886
44.79	3.98314
44.8	4.00616
44.81	4.01044
44.82	4.00978
44.83	4.0236
44.84	3.99498
44.85	4.02031
44.86	3.96899
44.87	3.97524
44.88	4.02393
44.89	3.99268
44.9	4.0236
44.91	4.00024
44.92	3.98709
44.93	3.98215
44.94	4.00057
44.95	3.96965
44.96	3.96866
44.97	3.97853
44.98	4.02557
44.99	3.99991
45	3.9657
45.01	3.96143
45.02	3.99235
45.03	4.00057
45.04	4.02919
45.05	3.98972
45.06	4.02031
45.07	4.02985
45.08	4.02459
45.09	3.9861
45.1	3.99827
45.11	3.98445
45.12	3.98972
45.13	4.02459
45.14	3.99761
45.15	4.0088
45.16	3.98709
45.17	3.99301
45.18	4.00584
45.19	4.00551
45.2	4.01307
45.21	4.02886
45.22	4.02261
45.23	4.01932
45.24	3.99169
45.25	4.01834
45.26	4.00649
45.27	3.98939
45.28	4.00156
45.29	4.02722
45.3	4.03347
45.31	3.99531
45.32	3.98412
45.33	4.00978
45.34	4.02524
45.35	3.99531
45.36	4.01373
45.37	4.01801
45.38	4.01669
45.39	4.00123
45.4	4.00189
45.41	4.04663
45.42	4.03906
45.43	4.01867
45.44	4.01834
45.45	4.01538
45.46	4.01242
45.47	3.98972
45.48	4.00913
45.49	3.99465
45.5	3.97491
45.51	4.00847
45.52	4.02853
45.53	4.01373
45.54	3.98807
45.55	4.01044
45.56	4.03774
45.57	3.99531
45.58	4.0111
45.59	3.99728
45.6	3.96603
45.61	3.97524
45.62	3.99597
45.63	4.01538
45.64	4.01209
45.65	4.01209
45.66	4.03084
45.67	3.99827
45.68	4.02952
45.69	4.00189
45.7	3.95912
45.71	3.94004
45.72	3.99366
45.73	4.03347
45.74	3.9986
45.75	3.98774
45.76	4.00584
45.77	4.01011
45.78	4.01077
45.79	4.00156
45.8	4.02722
45.81	4.00452
45.82	4.00715
45.83	4.01077
45.84	4.00024
45.85	4.0032
45.86	3.98906
45.87	4.01143
45.88	3.95485
45.89	4.01965
45.9	3.99038
45.91	4.00057
45.92	4.02261
45.93	4.00649
45.94	3.9861
45.95	4.03643
45.96	4.00584
45.97	4.01143
45.98	4.00057
45.99	4.0111
46	4.01274
46.01	4.01406
46.02	3.98215
46.03	3.98478
46.04	3.97393
46.05	4.00978
46.06	4.0134
46.07	4.00156
46.08	4.03215
46.09	4.01176
46.1	4.02064
46.11	4.01702
46.12	3.98445
46.13	3.99531
46.14	4.01209
46.15	4.01735
46.16	3.98643
46.17	3.99136
46.18	4.00781
46.19	4.02228
46.2	4.02327
46.21	4.01406
46.22	3.96636
46.23	3.98084
46.24	4.01505
46.25	4.04005
46.26	4.05551
46.27	4.01044
46.28	4.0032
46.29	3.99728
46.3	4.02031
46.31	3.99103
46.32	3.99531
46.33	3.9963
46.34	4.00715
46.35	3.99465
46.36	4.01834
46.37	4.02459
46.38	4.0361
46.39	4.02163
46.4	4.01406
46.41	4.0157
46.42	4.02623
46.43	4.02492
46.44	3.99564
46.45	4.044
46.46	4.02788
46.47	3.9884
46.48	4.01538
46.49	4.02656
46.5	4.02689
46.51	4.03577
46.52	4.00057
46.53	4.0032
46.54	4.00518
46.55	4.01505
46.56	4.00682
46.57	3.98544
46.58	4.01801
46.59	4.00978
46.6	3.96241
46.61	4.00419
46.62	3.98972
46.63	4.03807
46.64	3.97689
46.65	3.99103
46.66	3.97689
46.67	3.95781
46.68	4.0009
46.69	3.97853
46.7	4.01044
46.71	4.00649
46.72	3.99498
46.73	3.98709
46.74	3.99136
46.75	3.99597
46.76	4.00353
46.77	3.98741
46.78	3.97952
46.79	4.00189
46.8	4.01406
46.81	4.00123
46.82	3.97491
46.83	3.97623
46.84	4.02656
46.85	3.96208
46.86	4.0032
46.87	4.01768
46.88	4.02985
46.89	4.00518
46.9	4.03051
46.91	3.9986
46.92	3.96011
46.93	3.96899
46.94	3.98347
46.95	4.02656
46.96	4.01998
46.97	4.03807
46.98	3.98873
46.99	3.96866
47	4.00814
47.01	4.01242
47.02	3.98972
47.03	4.0157
47.04	4.04169
47.05	3.97491
47.06	3.97491
47.07	4.0134
47.08	3.98906
47.09	3.99991
47.1	3.98182
47.11	3.97031
47.12	4.00189
47.13	3.97162
47.14	4.03413
47.15	4.01636
47.16	4.00057
47.17	4.0463
47.18	4.00156
47.19	3.98511
47.2	3.95485
47.21	3.9963
47.22	3.97228
47.23	3.99695
47.24	3.9782
47.25	3.99432
47.26	3.98347
47.27	4.00715
47.28	4.00551
47.29	4.03577
47.3	4.03972
47.31	4.01636
47.32	3.98577
47.33	3.98807
47.34	4.01373
47.35	3.99366
47.36	3.99334
47.37	4.03215
47.38	3.98741
47.39	3.99005
47.4	4.03873
47.41	4.01373
47.42	4.00847
47.43	4.01965
47.44	4.03314
47.45	3.97787
47.46	3.99695
47.47	4.00616
47.48	4.03774
47.49	4.0236
47.5	4.02755
47.51	4.0009
47.52	4.03873
47.53	3.99169
47.54	3.99103
47.55	3.99564
47.56	3.99103
47.57	3.99597
47.58	3.9963
47.59	3.97097
47.6	3.94827
47.61	4.01373
47.62	4.04465
47.63	4.01834
47.64	4.01998
47.65	4.04202
47.66	4.02031
47.67	3.98084
47.68	4.01472
47.69	3.99564
47.7	3.95123
47.71	4.01932
47.72	4.01899
47.73	3.96932
47.74	4.00913
47.75	4.0111
47.76	4.03314
47.77	4.00649
47.78	4.00715
47.79	4.00518
47.8	4.00847
47.81	3.97886
47.82	3.97755
47.83	3.9986
47.84	4.02327
47.85	4.00222
47.86	4.04103
47.87	3.97952
47.88	3.98051
47.89	3.99827
47.9	3.96373
47.91	4.01899
47.92	3.99959
47.93	3.9713
47.94	3.98906
47.95	3.99761
47.96	3.99301
47.97	4.00386
47.98	4.00616
47.99	3.97064
48	3.98643
48.01	3.97689
48.02	4.00649
48.03	4.05025
48.04	3.99432
48.05	4.02557
48.06	4.00945
48.07	3.97393
48.08	4.00024
48.09	3.99991
48.1	4.00189
48.11	4.05321
48.12	3.9986
48.13	4.04696
48.14	3.99926
48.15	3.99432
48.16	4.0134
48.17	3.99564
48.18	4.02722
48.19	4.01209
48.2	3.98051
48.21	3.97524
48.22	3.95024
48.23	4.00551
48.24	4.02821
48.25	3.99202
48.26	3.98248
48.27	4.01702
48.28	4.0157
48.29	4.00288
48.3	4.0134
48.31	3.9782
48.32	4.00353
48.33	4.00616
48.34	4.03807
48.35	4.01899
48.36	4.03314
48.37	4.00156
48.38	3.98511
48.39	4.01472
48.4	4.02722
48.41	4.02459
48.42	4.02097
48.43	4.02821
48.44	4.01307
48.45	4.01472
48.46	4.01965
48.47	4.0111
48.48	3.99959
48.49	3.9907
48.5	3.97722
48.51	3.97294
48.52	3.96899
48.53	3.9907
48.54	3.97853
48.55	3.96866
48.56	3.98018
48.57	4.00189
48.58	3.99663
48.59	3.99038
48.6	4.01603
48.61	3.97491
48.62	3.99169
48.63	4.01143
48.64	4.03248
48.65	4.01077
48.66	4.00353
48.67	4.01965
48.68	4.01077
48.69	4.01011
48.7	3.9963
48.71	3.9986
48.72	4.00847
48.73	3.97097
48.74	3.93314
48.75	3.96669
48.76	3.99301
48.77	3.98807
48.78	4.02426
48.79	4.03215
48.8	3.99465
48.81	3.99366
48.82	3.98445
48.83	3.95682
48.84	4.0111
48.85	4.00255
48.86	3.97524
48.87	3.96077
48.88	3.99761
48.89	3.99564
48.9	4.00386
48.91	3.98643
48.92	3.99794
48.93	4.00419
48.94	3.99728
48.95	3.99827
48.96	3.9838
48.97	4.02524
48.98	4.01801
48.99	4.00353
49	4.01242
49.01	4.01209
49.02	4.01603
49.03	4.05979
49.04	3.99991
49.05	4.00518
49.06	4.0157
49.07	4.0213
49.08	4.00649
49.09	3.99498
49.1	3.98807
49.11	3.97787
49.12	4.01077
49.13	3.9986
49.14	4.01538
49.15	4.02821
49.16	4.03018
49.17	4.04334
49.18	4.05748
49.19	4.03774
49.2	3.9986
49.21	4.00057
49.22	4.01801
49.23	3.97787
49.24	4.02985
49.25	4.0236
49.26	3.9884
49.27	3.94465
49.28	3.99893
49.29	3.99794
49.3	4.00748
49.31	3.99235
49.32	3.99301
49.33	3.99794
49.34	3.99991
49.35	3.98709
49.36	3.98511
49.37	3.98478
49.38	4.02821
49.39	4.00452
49.4	4.01439
49.41	4.0157
49.42	4.0134
49.43	3.98676
49.44	4.01242
49.45	3.97195
49.46	4.00024
49.47	4.00616
49.48	3.98314
49.49	4.00682
49.5	4.01636
49.51	3.9407
49.52	3.96176
49.53	3.99005
49.54	4.02459
49.55	4.00024
49.56	4.01702
49.57	3.99169
49.58	4.01965
49.59	4.01143
49.6	4.01011
49.61	4.01735
49.62	4.02886
49.63	4.03182
49.64	3.99465
49.65	3.9907
49.66	3.97985
49.67	4.01636
49.68	4.03182
49.69	3.99334
49.7	3.97557
49.71	3.97459
49.72	4.01932
49.73	4.01669
49.74	4.00978
49.75	4.02919
49.76	4.00518
49.77	4.00156
49.78	4.00616
49.79	4.00189
49.8	3.99038
49.81	3.99268
49.82	4.02228
49.83	4.02261
49.84	3.96537
49.85	4.00649
49.86	4.04005
49.87	4.01044
49.88	3.97228
49.89	3.94926
49.9	4.0236
49.91	3.99366
49.92	3.97031
49.93	3.96603
49.94	4.01209
49.95	4.06669
49.96	3.99202
49.97	3.97853
49.98	3.97886
49.99	3.96735
50	3.97722
